TimeStamp,Delta_TP9,Delta_AF7,Delta_AF8,Delta_TP10,Theta_TP9,Theta_AF7,Theta_AF8,Theta_TP10,Alpha_TP9,Alpha_AF7,Alpha_AF8,Alpha_TP10,Beta_TP9,Beta_AF7,Beta_AF8,Beta_TP10,Gamma_TP9,Gamma_AF7,Gamma_AF8,Gamma_TP10,RAW_TP9,RAW_AF7,RAW_AF8,RAW_TP10,AUX_RIGHT,Accelerometer_X,Accelerometer_Y,Accelerometer_Z,Gyro_X,Gyro_Y,Gyro_Z,HeadBandOn,HSI_TP9,HSI_AF7,HSI_AF8,HSI_TP10,Battery,Elements
2025-02-15 19:18:29.097,,,,,,,,,,,,,,,,,,,,,,,,,,,,,,,,,,,,,,/muse/event/connected Muse-0167
2025-02-15 19:18:29.257,,,,,,,,,,,,,,,,,,,,,,,,,,,,,,,,,,,,,,/muse/elements/blink
2025-02-15 19:18:29.261,,,,,,,,,,,,,,,,,,,,,,,,,,,,,,,,,,,,,,/muse/elements/blink
2025-02-15 19:18:29.597,0,0.28517085059471,0.1353378502513096,0,0,0.0119456402494995,0.148114652053164,0,0,0.1670103159629644,0.6011998892135968,0,0,0.2562811071337167,0.3872729905658245,0,0,-0.1200901074876214,0.05089958844299967,0,594.7252747252747,763.1501831501831,759.92673992674,122.4908424908425,1170.915750915751,0.473083,0.135437,0.876465,0.575714,-2.183228,-0.194397,1,2,1,1,4,50.000000
2025-02-15 19:18:30.098,0,0.247423194145636,0.4175761481228459,0,0,-0.1034617939134968,0.1448006753800842,0,0,0.1378271980605488,0.5958403231955152,0,0,0.1951092200784723,0.2035728933722843,0,0,-0.04372844598730289,-0.03678609440787293,0,899.7435897435897,758.7179487179487,767.985347985348,599.5604395604396,849.3772893772895,0.466675,0.136841,0.872070,0.328979,-2.272949,-0.216827,1,4,1,1,4,50.000000
2025-02-15 19:18:30.130,,,,,,,,,,,,,,,,,,,,,,,,,,,,,,,,,,,,,,/muse/elements/blink
2025-02-15 19:18:30.323,,,,,,,,,,,,,,,,,,,,,,,,,,,,,,,,,,,,,,/muse/elements/blink
2025-02-15 19:18:30.598,0,0.2760858689129053,0.4483167985043371,0,0,-0.1205670435058767,0.01514661310506969,0,0,0.1403183469371635,0.1621110538361368,0,0,0.2375048332721301,0.1502567796528642,0,0,0.09011834156846242,-0.09514746276305837,0,1070.989010989011,762.3443223443223,763.5531135531136,1037.948717948718,983.1501831501831,0.463013,0.136292,0.875366,0.710297,-2.145844,-0.014954,1,2,1,1,4,50.000000
2025-02-15 19:18:31.030,,,,,,,,,,,,,,,,,,,,,,,,,,,,,,,,,,,,,,/muse/elements/blink
2025-02-15 19:18:31.111,0,0.221967445979415,0.4687250798118803,0,0,-0.009020864877345242,0.03367575047087831,0,0,0.335133909842372,0.07580363103271276,0,0,0.2757568147608889,0.2022878894042858,0,0,0.1159114324465599,0.0185704089907436,0,1390.512820512821,766.3736263736264,756.3003663003664,1182.197802197802,983.956043956044,0.464539,0.135620,0.873291,0.643005,-2.078552,-0.149536,1,2,1,1,2,50.000000
2025-02-15 19:18:31.604,0,0.1148633510923119,0.3644603044357669,0,0,0.02942978062247154,0.00916093980630087,0,0,0.3947579026797736,0.1441637489697018,0,0,0.3680007902447403,0.3615445757123256,0,0,0.06293012515723635,0.08152352982947099,0,1429.194139194139,776.0439560439561,761.5384615384615,0,828.8278388278388,0.462158,0.136108,0.879639,1.226196,-2.639313,-0.396271,1,2,1,1,4,50.000000
2025-02-15 19:18:31.824,,,,,,,,,,,,,,,,,,,,,,,,,,,,,,,,,,,,,,/muse/elements/blink
2025-02-15 19:18:32.099,0,0.03918057299285734,0.2997248055427863,0,0,-0.03755859530513354,-0.172832546102394,0,0,0.3805500507405273,0.2217577759401482,0,0,0.4219902250866686,0.4834208110701116,0,0,-0.05856906142179707,0.1160898456722806,0,746.2271062271062,768.3882783882784,754.6886446886447,1128.608058608059,772.4175824175825,0.465149,0.138306,0.877441,0.530853,-1.988831,-0.171967,1,2,1,1,4,50.000000
2025-02-15 19:18:32.167,,,,,,,,,,,,,,,,,,,,,,,,,,,,,,,,,,,,,,/muse/elements/jaw_clench
2025-02-15 19:18:32.607,0,0.06062268489660053,0.2250846398971275,0,0,-0.2423083439149989,-0.3023315565435963,0,0,0.3363589908902564,0.2223789521809865,0,0,0.4367273555550252,0.4810803401778037,0,0,-0.1940833440510966,0.02591516515295857,0,858.2417582417582,772.014652014652,770.8058608058608,1162.454212454212,932.7838827838829,0.462036,0.136169,0.876892,0.441132,-1.951447,-0.358887,1,2,1,1,4,50.000000
2025-02-15 19:18:33.061,,,,,,,,,,,,,,,,,,,,,,,,,,,,,,,,,,,,,,/muse/elements/jaw_clench
2025-02-15 19:18:33.100,0,0.1091173763417856,0.1125513844363545,0,0,-0.450466961156937,-0.2891445616778655,0,0,0.2283631516003971,0.2243380074914175,0,0,0.3828906889052529,0.3958840963392189,0,0,-0.2137516929951503,0.05395463262453781,0,927.1428571428572,781.6849816849817,784.5054945054945,238.5347985347985,1126.593406593407,0.480835,0.146790,0.880371,0.545807,-3.611298,1.951447,1,2,1,1,4,50.000000
2025-02-15 19:18:33.298,,,,,,,,,,,,,,,,,,,,,,,,,,,,,,,,,,,,,,/muse/elements/jaw_clench
2025-02-15 19:18:33.493,,,,,,,,,,,,,,,,,,,,,,,,,,,,,,,,,,,,,,/muse/elements/blink
2025-02-15 19:18:33.599,0,0.1096501410605798,0.2554862242397505,0,0,-0.3210458486432572,0.06379895111954217,0,0,0.2916928617612473,0.2305473945701358,0,0,0.3321237869625687,0.3637556954317109,0,0,-0.1037556170161647,0.06977478940982643,0,1350.622710622711,770.4029304029305,778.0586080586081,0,607.2161172161173,0.449890,0.099670,0.880371,0.269165,-2.250519,0.059814,1,2,1,1,4,50.000000
2025-02-15 19:18:34.113,0,0.3500528697813858,0.6255628767629038,0,0,-0.03961595717011559,0.4514702549537589,0,0,0.3544542903181435,0.4971117582845557,0,0,0.3543603520333168,0.3779038576193579,0,0,-0.05923230572206917,0.07215111840918408,0,813.5164835164835,788.1318681318681,770.4029304029305,544.3589743589744,938.021978021978,0.455078,0.105530,0.885193,0.523376,-1.854248,-0.598145,1,2,1,1,4,50.000000
2025-02-15 19:18:34.181,,,,,,,,,,,,,,,,,,,,,,,,,,,,,,,,,,,,,,/muse/elements/blink
2025-02-15 19:18:34.416,,,,,,,,,,,,,,,,,,,,,,,,,,,,,,,,,,,,,,/muse/elements/jaw_clench
2025-02-15 19:18:34.607,0,0.4460628863689192,0.6007876808952609,0,0,-0.01514695184528021,0.4876016559547169,0,0,0.3182189109431324,0.5134749257290514,0,0,0.4127125039936071,0.3963142120882303,0,0,-0.03087748070016525,0.1217512073132908,0,1060.915750915751,794.981684981685,797.3992673992674,1650,1101.208791208791,0.453430,0.118408,0.887329,1.368256,-2.377625,-0.284119,1,2,1,1,4,50.000000
2025-02-15 19:18:34.697,,,,,,,,,,,,,,,,,,,,,,,,,,,,,,,,,,,,,,/muse/elements/blink
2025-02-15 19:18:34.784,,,,,,,,,,,,,,,,,,,,,,,,,,,,,,,,,,,,,,/muse/elements/jaw_clench
2025-02-15 19:18:35.099,0,0.4625860218709879,0.6012707313830934,0,0,-0.05860461222838676,0.4837358790460181,0,0,0.1545065171984293,0.537461855941015,0,0,0.4153040568050967,0.3320886084588957,0,0,-0.103065605838158,0.1081154336270671,0,697.0695970695971,792.967032967033,790.5494505494506,1463.040293040293,834.8717948717949,0.454346,0.117432,0.880432,0.583191,-2.071075,-0.328979,1,2,1,1,4,50.000000
2025-02-15 19:18:35.605,0,0.460920665121259,0.2842523759721667,0,0,-0.202412622707261,0.1847855268751142,0,0,0.06409668604970788,0.412736058105532,0,0,0.3715361013493972,0.33573134328218,0,0,-0.09935152180344631,0.2245541854759607,0,834.4688644688645,784.5054945054945,778.4615384615385,1580.29304029304,903.3699633699634,0.447754,0.121216,0.877563,0.485992,-2.048645,-0.179443,1,2,1,1,4,50.000000
2025-02-15 19:18:35.716,,,,,,,,,,,,,,,,,,,,,,,,,,,,,,,,,,,,,,/muse/elements/blink
2025-02-15 19:18:35.716,,,,,,,,,,,,,,,,,,,,,,,,,,,,,,,,,,,,,,/muse/elements/jaw_clench
2025-02-15 19:18:36.100,0,0.2823137964173189,0.2524096315426959,0,0,-0.2918501394712456,0.235236874260156,0,0,-0.1992797445216709,0.3840435892498089,0,0,0.2845263621317481,0.3496034127532141,0,0,-0.0771819981093204,0.2567666931906624,0,739.3772893772893,779.6703296703297,774.8351648351648,1130.21978021978,760.7326007326008,0.449646,0.122620,0.887207,0.403748,-2.026215,-0.104675,1,2,1,1,4,50.000000
2025-02-15 19:18:36.510,,,,,,,,,,,,,,,,,,,,,,,,,,,,,,,,,,,,,,/muse/elements/jaw_clench
2025-02-15 19:18:36.614,0,0.2079334559986245,0.150510601508803,0,0,0.1421402248223442,0.2301156167876719,0,0,0.2854192796863891,0.3511303471011374,0,0,0.2414741827669149,0.3408561004140432,0,0,0.1501994156677789,0.246355599363667,0,1275.274725274725,791.7582417582418,789.3406593406594,1506.959706959707,1028.278388278388,0.450378,0.123535,0.886597,0.538330,-2.108459,-0.194397,1,2,1,1,4,50.000000
2025-02-15 19:18:37.045,,,,,,,,,,,,,,,,,,,,,,,,,,,,,,,,,,,,,,/muse/elements/blink
2025-02-15 19:18:37.106,0,0.1235528205574517,0.2824085376090669,0,0,0.2225515419100421,0.2223448528082139,0,0,0.399389185981219,0.3554814727494792,0,0,0.2736797329858098,0.2584897446106452,0,0,0.1571547948458651,0.1161980199369889,0,434.3589743589744,788.9377289377289,790.952380952381,352.1611721611721,595.5311355311355,0.448059,0.121765,0.883667,0.343933,-2.086029,-0.628052,1,2,1,1,4,50.000000
2025-02-15 19:18:37.453,,,,,,,,,,,,,,,,,,,,,,,,,,,,,,,,,,,,,,/muse/elements/jaw_clench
2025-02-15 19:18:37.600,0,0.1108976265312991,0.7151783379605697,0,0,0.2540042009418763,0.331762287673189,0,0,0.4237290512006046,0.4144715171265831,0,0,0.2420978910762679,0.1779133490522939,0,0,0.1471626043061606,-0.07446117341154009,0,455.3113553113553,806.2637362637363,747.4358974358975,25.38461538461539,708.3516483516484,0.441711,0.114807,0.883911,0.186920,-2.026215,-0.463562,1,2,1,1,4,50.000000
2025-02-15 19:18:37.838,,,,,,,,,,,,,,,,,,,,,,,,,,,,,,,,,,,,,,/muse/elements/blink
2025-02-15 19:18:38.054,,,,,,,,,,,,,,,,,,,,,,,,,,,,,,,,,,,,,,/muse/elements/blink
2025-02-15 19:18:38.115,0,0.2502679916442603,0.8501983911099467,0,0,0.1555592045860938,0.3689024595027428,0,0,0.4242294490536456,0.3960001121169243,0,0,0.2321630456492731,0.1622066536156443,0,0,-0.09452299959852124,-0.1514401075522026,0,1268.424908424908,788.5347985347986,796.5934065934066,0,1097.985347985348,0.443787,0.111145,0.887756,0.059814,-1.764526,-0.471039,1,2,1,1,4,50.000000
2025-02-15 19:18:38.336,,,,,,,,,,,,,,,,,,,,,,,,,,,,,,,,,,,,,,/muse/elements/blink
2025-02-15 19:18:38.610,0,0.3111910220419847,1.009756288249913,0,0,0.07442663527538668,0.5067084418686266,0,0,0.5896516527720561,0.384116717675919,0,0,0.4194736730663658,0.2031682092331666,0,0,-0.2569746013528382,-0.2076453481649511,0,671.6849816849817,786.1172161172161,790.5494505494506,0,732.9304029304029,0.442261,0.108521,0.887573,0.157013,-2.243042,-0.000000,1,2,1,1,2,50.000000
2025-02-15 19:18:38.677,,,,,,,,,,,,,,,,,,,,,,,,,,,,,,,,,,,,,,/muse/elements/jaw_clench
2025-02-15 19:18:39.044,,,,,,,,,,,,,,,,,,,,,,,,,,,,,,,,,,,,,,/muse/elements/jaw_clench
2025-02-15 19:18:39.105,0,0.3163802283604333,0.5631512479557665,0,0,0.06849206577316899,-0.05699538749331881,0,0,0.5448610658425903,0.281398675213876,0,0,0.4840919619228403,0.1784899116033583,0,0,-0.2693317850986703,-0.1893059012377283,0,721.6483516483516,796.5934065934066,794.5787545787546,1620.989010989011,576.5934065934066,0.439758,0.108948,0.891785,0.553284,-2.160797,-0.276642,1,2,1,1,4,50.000000
2025-02-15 19:18:39.130,,,,,,,,,,,,,,,,,,,,,,,,,,,,,,,,,,,,,,/muse/elements/blink
2025-02-15 19:18:39.389,,,,,,,,,,,,,,,,,,,,,,,,,,,,,,,,,,,,,,/muse/elements/blink
2025-02-15 19:18:39.561,,,,,,,,,,,,,,,,,,,,,,,,,,,,,,,,,,,,,,/muse/elements/jaw_clench
2025-02-15 19:18:39.600,0,0.3183471181222025,0.2839312380623761,0,0,0.03262306670254993,-0.1749116976135244,0,0,0.5505738567329181,0.2930297516445018,0,0,0.5058554212145117,0.2074677555256387,0,0,-0.2017974760146109,-0.1888977679001475,0,504.0659340659341,802.2344322344322,794.5787545787546,32.63736263736264,1014.981684981685,0.440552,0.101379,0.893127,-0.022430,-1.779480,-0.246735,1,2,1,1,4,50.000000
2025-02-15 19:18:39.668,,,,,,,,,,,,,,,,,,,,,,,,,,,,,,,,,,,,,,/muse/elements/blink
2025-02-15 19:18:39.884,,,,,,,,,,,,,,,,,,,,,,,,,,,,,,,,,,,,,,/muse/elements/jaw_clench
2025-02-15 19:18:40.101,0,0.3643135111786861,0.2394131099527115,0,0,0.09485110782226659,-0.07146759508007219,0,0,0.4069806000531156,0.3069977053722581,0,0,0.3335331915666693,0.1383511582949853,0,0,-0.1163150026929411,-0.2719669522465391,0,422.2710622710623,789.3406593406594,790.1465201465202,0,803.040293040293,0.437500,0.105713,0.890076,0.583191,-2.003784,-0.097198,1,4,1,1,2,50.000000
2025-02-15 19:18:40.508,,,,,,,,,,,,,,,,,,,,,,,,,,,,,,,,,,,,,,/muse/elements/blink
2025-02-15 19:18:40.612,0,0.3892511892784172,0.231717780211297,0,0,0.2244979934146466,0.2694754700733781,0,0,0.5534338269626984,0.3076212490354094,0,0,0.2667375844978054,0.1644294011923329,0,0,-0.1798320917213581,-0.3523873814739733,0,594.7252747252747,802.6373626373627,800.2197802197802,233.2967032967033,553.2234432234433,0.441650,0.100769,0.890320,0.052338,-2.011261,-0.261688,1,2,1,1,4,50.000000
2025-02-15 19:18:41.100,0,0.4289876731421559,0.5927018475543129,0,0,0.2999210321004384,0.4564874220245377,0,0,0.5534338269626984,0.4506435916599738,0,0,0.2091142018070503,0.08816714172573362,0,0,-0.206199405542758,-0.3515724873204651,0,338.0586080586081,795.3846153846154,787.3260073260074,1336.117216117216,828.021978021978,0.434387,0.101624,0.895142,0.598145,-2.011261,-0.261688,1,2,1,1,4,50.000000
2025-02-15 19:18:41.217,,,,,,,,,,,,,,,,,,,,,,,,,,,,,,,,,,,,,,/muse/elements/blink
2025-02-15 19:18:41.475,,,,,,,,,,,,,,,,,,,,,,,,,,,,,,,,,,,,,,/muse/elements/jaw_clench
2025-02-15 19:18:41.601,0,0.241719994473785,0.6347909794844363,0,0,0.2695427504878024,0.4464902042581818,0,0,0.5112326097314452,0.4888190407261537,0,0,0.2703554089543718,0.2524087459951481,0,0,-0.2682072898310588,-0.1251871354439225,0,399.7069597069597,786.1172161172161,785.3113553113553,0,752.2710622710623,0.431702,0.101990,0.894958,0.411224,-1.786957,-0.343933,1,2,1,1,4,50.000000
2025-02-15 19:18:41.819,,,,,,,,,,,,,,,,,,,,,,,,,,,,,,,,,,,,,,/muse/elements/blink
2025-02-15 19:18:41.819,,,,,,,,,,,,,,,,,,,,,,,,,,,,,,,,,,,,,,/muse/elements/jaw_clench
2025-02-15 19:18:42.099,,,,,,,,,,,,,,,,,,,,,,,,,,,,,,,,,,,,,,/muse/elements/blink
2025-02-15 19:18:42.117,0,0.1226770309293834,0.5616755579865349,0,0,0.2036610158454648,0.1844911475012458,0,0,0.5109708747143372,0.4889441188245099,0,0,0.5148370170539762,0.585226019691487,0,0,-0.09383231758531969,0.07750829829743958,0,661.2087912087912,810.6959706959707,782.4908424908425,14.50549450549451,382.3809523809524,0.427917,0.096375,0.898621,1.188812,-2.579498,-0.044861,1,2,1,1,2,50.000000
2025-02-15 19:18:42.206,,,,,,,,,,,,,,,,,,,,,,,,,,,,,,,,,,,,,,/muse/elements/jaw_clench
2025-02-15 19:18:42.420,,,,,,,,,,,,,,,,,,,,,,,,,,,,,,,,,,,,,,/muse/elements/blink
2025-02-15 19:18:42.610,0,0.02264881614174235,0.2069101045842731,0,0,0.04718154626458469,-0.1303407593508515,0,0,0.4756283533071981,0.2391146229769729,0,0,0.5923751779594132,0.7386436024205539,0,0,-0.0764835168880883,0.09865310772894172,0,334.4322344322345,797.3992673992674,798.6080586080586,201.8681318681319,933.5897435897436,0.432983,0.095764,0.896362,0.186920,-1.958923,-0.261688,1,2,1,1,4,50.000000
2025-02-15 19:18:43.024,,,,,,,,,,,,,,,,,,,,,,,,,,,,,,,,,,,,,,/muse/elements/blink
2025-02-15 19:18:43.106,0,0.06541457192433665,0.1451253353721259,0,0,-0.1112198328264235,-0.01972539154658918,0,0,0.4976590427930789,0.304084173812216,0,0,0.5497012169054774,0.7402643064600153,0,0,-0.002493500698285498,0.01567320355879293,0,720.8424908424909,803.040293040293,800.2197802197802,821.978021978022,937.2161172161173,0.431091,0.096375,0.895264,0.942078,-2.190704,0.201874,1,2,1,1,4,50.000000
2025-02-15 19:18:43.217,,,,,,,,,,,,,,,,,,,,,,,,,,,,,,,,,,,,,,/muse/elements/blink
2025-02-15 19:18:43.559,,,,,,,,,,,,,,,,,,,,,,,,,,,,,,,,,,,,,,/muse/elements/jaw_clench
2025-02-15 19:18:43.601,0,0.1163586068076809,0.2906101873714974,0,0,-0.3380800777263344,0.1105042428134166,0,0,0.2855465151276002,0.4569611269331262,0,0,0.2919283618819137,0.552196925711538,0,0,-0.09258928385374489,-0.1548141120630181,0,0,807.0695970695971,799.8168498168499,1620.989010989011,761.5384615384615,0.436035,0.087708,0.898621,-1.241150,-2.579498,2.153320,1,2,1,1,4,50.000000
2025-02-15 19:18:43.731,,,,,,,,,,,,,,,,,,,,,,,,,,,,,,,,,,,,,,/muse/elements/blink
2025-02-15 19:18:44.012,,,,,,,,,,,,,,,,,,,,,,,,,,,,,,,,,,,,,,/muse/elements/jaw_clench
2025-02-15 19:18:44.115,0,0.05596908904645252,0.3464561180277528,0,0,-0.1651749638906594,0.172026364532763,0,0,0.3000092592721499,0.4628068114946761,0,0,0.08428633749255171,0.2424934612087921,0,0,-0.09457966418711858,-0.1440038643168124,0,1208.388278388278,801.8315018315019,809.0842490842491,0,833.6630036630037,0.420410,0.045410,0.904602,-5.136566,-0.164490,5.667419,1,4,1,1,4,50.000000
2025-02-15 19:18:44.162,,,,,,,,,,,,,,,,,,,,,,,,,,,,,,,,,,,,,,/muse/elements/blink
2025-02-15 19:18:44.356,,,,,,,,,,,,,,,,,,,,,,,,,,,,,,,,,,,,,,/muse/elements/blink
2025-02-15 19:18:44.528,,,,,,,,,,,,,,,,,,,,,,,,,,,,,,,,,,,,,,/muse/elements/blink
2025-02-15 19:18:44.608,0,0.3574236666172603,0.4953462135370605,0,0,0.001187420521660347,0.2577178015424647,0,0,0.258421035969313,0.4909052408902646,0,0,0.1229247197723274,0.128649119816415,0,0,-0.07689602515643296,-0.1209425352584335,0,1560.14652014652,789.3406593406594,791.7582417582418,1617.362637362637,103.956043956044,0.415649,0.009033,0.899170,6.467438,-4.015045,-1.016846,1,4,1,1,4,50.000000
2025-02-15 19:18:44.891,,,,,,,,,,,,,,,,,,,,,,,,,,,,,,,,,,,,,,/muse/elements/jaw_clench
2025-02-15 19:18:45.102,0,0.5763182829609931,0.5790074761093705,0,0,0.08319609134519945,0.3220607813116697,0,0,0.2295894680206877,0.3089276684653771,0,0,0.3766233533827753,0.1360159365850519,0,0,0.03863659172762707,-0.0743617053850249,0,1133.443223443224,786.1172161172161,789.3406593406594,1620.989010989011,769.5970695970697,0.433655,0.044434,0.903381,1.383209,-2.893524,0.164490,1,4,1,1,4,50.000000
2025-02-15 19:18:45.149,,,,,,,,,,,,,,,,,,,,,,,,,,,,,,,,,,,,,,/muse/elements/blink
2025-02-15 19:18:45.236,,,,,,,,,,,,,,,,,,,,,,,,,,,,,,,,,,,,,,/muse/elements/jaw_clench
2025-02-15 19:18:45.494,,,,,,,,,,,,,,,,,,,,,,,,,,,,,,,,,,,,,,/muse/elements/blink
2025-02-15 19:18:45.601,0,0.6083634127375365,0.7374046537691826,0,0,0.1865317282425504,0.3184702741688061,0,0,0.3412465404929938,0.3130973928056421,0,0,0.4153893445293969,0.3147802151149865,0,0,0.0271134107063728,-0.05532862747560139,0,248.6080586080586,797.8021978021978,785.3113553113553,1441.282051282051,752.2710622710623,0.437683,0.048035,0.885437,1.360779,-2.639313,-0.276642,1,4,1,1,4,50.000000
2025-02-15 19:18:45.836,,,,,,,,,,,,,,,,,,,,,,,,,,,,,,,,,,,,,,/muse/elements/jaw_clench
2025-02-15 19:18:46.092,,,,,,,,,,,,,,,,,,,,,,,,,,,,,,,,,,,,,,/muse/elements/blink
2025-02-15 19:18:46.101,0,0.5235268828228734,0.5967608738341427,0,0,0.1547435817925858,0.07883533166237315,0,0,0.3452240090595002,0.2741720929151108,0,0,0.4120213070719799,0.222094951149464,0,0,0.006782260806777449,0.09582683368142672,0,262.7106227106227,799.8168498168499,796.5934065934066,0,844.1391941391942,0.438049,0.055237,0.896851,0.889740,-1.742096,-0.874786,1,4,1,1,4,50.000000
2025-02-15 19:18:46.601,0,0.3167610470480001,0.4221861686338441,0,0,0.1807569492457744,-0.05357848955427646,0,0,0.3549623353371454,0.4099411096925044,0,0,0.1925000370344087,0.1700274462937031,0,0,-0.09214320824758865,0.008274603739701373,0,472.6373626373626,801.025641025641,793.3699633699634,834.0659340659341,842.9304029304029,0.430786,0.049438,0.899780,0.695343,-2.265472,-0.186920,1,4,1,1,4,50.000000
2025-02-15 19:18:46.990,,,,,,,,,,,,,,,,,,,,,,,,,,,,,,,,,,,,,,/muse/elements/blink
2025-02-15 19:18:47.101,0,0.2514412442253325,0.2637039745558283,0,0,0.06478030787913769,-0.147122515101507,0,0,0.3089109980434493,0.3578706739480972,0,0,0.1626120333420351,0.1166756586147864,0,0,-0.02623615164648726,0.03568731515089159,0,341.6849816849817,813.919413919414,800.2197802197802,536.3003663003664,1038.754578754579,0.437683,0.051331,0.900269,1.181335,-2.243042,-0.553284,1,4,1,1,4,50.000000
2025-02-15 19:18:47.209,,,,,,,,,,,,,,,,,,,,,,,,,,,,,,,,,,,,,,/muse/elements/blink
2025-02-15 19:18:47.209,,,,,,,,,,,,,,,,,,,,,,,,,,,,,,,,,,,,,,/muse/elements/jaw_clench
2025-02-15 19:18:47.403,,,,,,,,,,,,,,,,,,,,,,,,,,,,,,,,,,,,,,/muse/elements/jaw_clench
2025-02-15 19:18:47.577,,,,,,,,,,,,,,,,,,,,,,,,,,,,,,,,,,,,,,/muse/elements/blink
2025-02-15 19:18:47.601,0,0.1158066751916862,0.0548870025215261,0,0,-0.01139004586507362,-0.3134339894644422,0,0,0.1871150150855792,0.3175884413285994,0,0,0.2236279306039875,0.06969208028205005,0,0,0.09450309765543917,0.03235537909561521,0,330.8058608058608,793.3699633699634,808.2783882783883,1467.472527472527,817.1428571428571,0.432312,0.047241,0.897766,0.822449,-2.624359,0.067291,1,4,1,1,4,50.000000
2025-02-15 19:18:47.817,,,,,,,,,,,,,,,,,,,,,,,,,,,,,,,,,,,,,,/muse/elements/jaw_clench
2025-02-15 19:18:48.104,,,,,,,,,,,,,,,,,,,,,,,,,,,,,,,,,,,,,,/muse/elements/blink
2025-02-15 19:18:48.106,0,-0.02267321136477832,0.1228399596477762,0,0,-0.1105651841429011,-0.1767836511304394,0,0,0.01247291097272266,0.3579590514096227,0,0,0.2342325519031405,0.09124528079205835,0,0,0.08209419367377555,0.05394121915975489,0,700.6959706959707,814.3223443223443,805.4578754578755,0,395.6776556776557,0.428589,0.043213,0.897156,-0.433655,-1.001892,-0.620575,1,4,1,1,4,50.000000
2025-02-15 19:18:48.614,0,-0.05103814356154586,0.2077087518941694,0,0,-0.0413920962038098,-0.1101537877765645,0,0,0.127701430996641,0.3273566710152561,0,0,0.2251897098659091,0.1827642007481658,0,0,0.1161325676035721,0.06596087436143043,0,1270.03663003663,796.996336996337,804.6520146520147,875.9706959706959,1114.908424908425,0.418213,0.056458,0.903931,1.764526,-3.491669,0.583191,1,4,1,1,4,50.000000
2025-02-15 19:18:48.705,,,,,,,,,,,,,,,,,,,,,,,,,,,,,,,,,,,,,,/muse/elements/blink
2025-02-15 19:18:48.898,,,,,,,,,,,,,,,,,,,,,,,,,,,,,,,,,,,,,,/muse/elements/jaw_clench
2025-02-15 19:18:49.027,,,,,,,,,,,,,,,,,,,,,,,,,,,,,,,,,,,,,,/muse/elements/blink
2025-02-15 19:18:49.108,0,0.03076403850986727,0.183361646243089,0,0,0.01854209684358211,0.00132443742696676,0,0,0.2779652504955838,0.410860566570807,0,0,0.1690247768248794,0.2464801288975658,0,0,0.06964837234714948,0.1275768567965738,0,391.6483516483516,800.6227106227107,802.6373626373627,1021.831501831502,867.9120879120879,0.426392,0.054810,0.903931,1.091614,-2.235565,-0.403748,1,4,1,1,4,50.000000
2025-02-15 19:18:49.601,0,0.0611384547645169,0.4557900073290565,0,0,0.1867963191600277,0.2141073577348081,0,0,0.3749343613372048,0.3878721136097857,0,0,0.1317544270747002,0.253193777783887,0,0,0.06142675905534483,0.1671287611391941,0,330,807.0695970695971,799.4139194139194,0,1579.89010989011,0.442322,0.085266,0.888245,0.239258,-2.542114,-0.366364,1,4,1,1,4,50.000000
2025-02-15 19:18:49.734,,,,,,,,,,,,,,,,,,,,,,,,,,,,,,,,,,,,,,/muse/elements/blink
2025-02-15 19:18:50.015,,,,,,,,,,,,,,,,,,,,,,,,,,,,,,,,,,,,,,/muse/elements/jaw_clench
2025-02-15 19:18:50.102,0,0.1917863783113719,0.5743374975608536,0,0,0.272197772943107,0.2087553497777502,0,0,0.4144464553568731,0.3314541021180359,0,0,0.2196738107892797,0.1962862827616245,0,0,0.03008199892326431,0.1583001943916222,0,834.0659340659341,803.4432234432235,807.8754578754579,901.7582417582418,1016.996336996337,0.440063,0.065674,0.895874,-0.433655,-1.263580,0.037384,1,2,1,1,4,50.000000
2025-02-15 19:18:50.446,,,,,,,,,,,,,,,,,,,,,,,,,,,,,,,,,,,,,,/muse/elements/blink
2025-02-15 19:18:50.532,,,,,,,,,,,,,,,,,,,,,,,,,,,,,,,,,,,,,,/muse/elements/jaw_clench
2025-02-15 19:18:50.612,0,0.2085231184227654,0.5977181847410417,0,0,0.2544816247256614,0.3280641654752451,0,0,0.3751814128810086,0.4337210511543276,0,0,0.2523595166402334,0.2111216080851357,0,0,-0.03651582760040638,0.1121890296362178,0,456.5201465201465,799.8168498168499,801.4285714285714,0,894.5054945054945,0.440125,0.063782,0.889526,0.717773,-2.579498,0.059814,1,4,1,1,4,50.000000
2025-02-15 19:18:50.876,,,,,,,,,,,,,,,,,,,,,,,,,,,,,,,,,,,,,,/muse/elements/blink
2025-02-15 19:18:50.876,,,,,,,,,,,,,,,,,,,,,,,,,,,,,,,,,,,,,,/muse/elements/jaw_clench
2025-02-15 19:18:51.109,0,0.161335267945764,0.4157451067871205,0,0,0.125585241160918,0.2514337856457503,0,0,0.2937170711647765,0.3519046644617603,0,0,0.3248509405923283,0.2362258186270506,0,0,-0.04604699176838816,0.08545191710188842,0,479.0842490842491,798.6080586080586,814.7252747252747,0,701.9047619047619,0.430603,0.057922,0.900452,-0.082245,-1.704712,-0.231781,1,2,1,1,4,50.000000
2025-02-15 19:18:51.565,,,,,,,,,,,,,,,,,,,,,,,,,,,,,,,,,,,,,,/muse/elements/blink
2025-02-15 19:18:51.602,0,0.02633238099935557,0.3384835330945746,0,0,-0.0008879594553975396,0.3150183600501318,0,0,0.2447160428592428,0.3631385676012141,0,0,0.2907121012008554,0.2717543306373837,0,0,-0.1002251865653573,0.003870622569204108,0,387.6190476190476,809.4871794871796,802.2344322344322,0,492.7838827838828,0.433472,0.055420,0.897949,0.351410,-2.041168,-0.545807,1,4,1,1,4,50.000000
2025-02-15 19:18:51.844,,,,,,,,,,,,,,,,,,,,,,,,,,,,,,,,,,,,,,/muse/elements/jaw_clench
2025-02-15 19:18:52.102,0,-0.04853413070427428,0.3039452019440625,0,0,-0.03791615458257749,0.2370112386075293,0,0,0.2522057311869894,0.4131267403579237,0,0,0.3824396761754034,0.3744505466945137,0,0,-0.0756104023849152,-0.1063600892131581,0,622.9304029304029,803.040293040293,804.6520146520147,1620.989010989011,836.4835164835165,0.431641,0.046570,0.894897,0.770111,-2.497253,0.097198,1,2,1,1,4,50.000000
2025-02-15 19:18:52.554,,,,,,,,,,,,,,,,,,,,,,,,,,,,,,,,,,,,,,/muse/elements/blink
2025-02-15 19:18:52.613,0,0.1640065504272949,0.4498431917469788,0,0,0.04681196494374489,0.2301588004523356,0,0,0.2469292295587786,0.6335683138302841,0,0,0.3506614097886758,0.4576599502604172,0,0,-0.0499013885516575,-0.08331152300091167,0,449.6703296703297,803.8461538461539,805.0549450549451,849.3772893772895,843.3333333333334,0.424133,0.045776,0.902222,0.291595,-1.375732,-0.052338,1,4,1,1,2,50.000000
2025-02-15 19:18:52.769,,,,,,,,,,,,,,,,,,,,,,,,,,,,,,,,,,,,,,/muse/elements/blink
2025-02-15 19:18:53.071,,,,,,,,,,,,,,,,,,,,,,,,,,,,,,,,,,,,,,/muse/elements/blink
2025-02-15 19:18:53.102,0,0.4042199333952446,0.4770245309051583,0,0,0.0006714093464123941,0.1824028394213812,0,0,0.313368938710303,0.6351444831043357,0,0,0.3192852624259999,0.4722845680736962,0,0,-0.05877798483099065,-0.02150824380785976,0,199.8534798534799,806.6666666666667,800.6227106227107,1620.989010989011,593.1135531135532,0.424500,0.037415,0.901184,1.405640,-2.056122,0.418701,1,2,1,1,4,50.000000
2025-02-15 19:18:53.478,,,,,,,,,,,,,,,,,,,,,,,,,,,,,,,,,,,,,,/muse/elements/blink
2025-02-15 19:18:53.601,0,0.654265399356871,0.4379835013235838,0,0,0.06514760791775534,0.1066366237417652,0,0,0.3224633220763185,0.6351444831043357,0,0,0.09473820525619633,0.3442978376479121,0,0,-0.07721328637724675,-0.01659213796323222,0,520.5860805860806,802.2344322344322,796.5934065934066,1620.989010989011,608.021978021978,0.428467,0.056091,0.901550,1.450500,-2.317810,-0.067291,1,2,1,1,4,50.000000
2025-02-15 19:18:53.671,,,,,,,,,,,,,,,,,,,,,,,,,,,,,,,,,,,,,,/muse/elements/blink
2025-02-15 19:18:54.102,0,0.6909461894905466,0.2466541878865226,0,0,-0.05397734348851677,0.07210210329861057,0,0,0.3159480904674087,0.2912491294222996,0,0,0.1308714640225859,0.2079841331696642,0,0,-0.130295507489528,-0.09792325248343543,0,613.6630036630037,806.2637362637363,807.0695970695971,143.0402930402931,877.985347985348,0.426392,0.051270,0.893921,0.530853,-2.160797,-0.246735,1,2,1,1,4,50.000000
2025-02-15 19:18:54.381,,,,,,,,,,,,,,,,,,,,,,,,,,,,,,,,,,,,,,/muse/elements/blink
2025-02-15 19:18:54.601,0,0.637502482437117,0.08794248972677089,0,0,0.02899899925977454,0.09223275905104884,0,0,0.2921595145509524,0.2028308826610171,0,0,0.132465271357418,0.1207070634572797,0,0,-0.1492805529387169,-0.07264659520000882,0,508.9010989010989,797.3992673992674,797.8021978021978,0,830.0366300366301,0.431213,0.050476,0.899536,0.523376,-2.205658,-0.269165,1,2,1,1,2,50.000000
2025-02-15 19:18:54.809,,,,,,,,,,,,,,,,,,,,,,,,,,,,,,,,,,,,,,/muse/elements/blink
2025-02-15 19:18:55.102,0,0.4415787827248935,0.1401238925830173,0,0,-0.04189274895687583,0.2028024012323366,0,0,0.1594698348921818,0.344245377056185,0,0,0.1645461414405681,0.1526022453269932,0,0,-0.1650293276968079,-0.06241555225033251,0,728.4981684981685,801.4285714285714,799.8168498168499,0,842.9304029304029,0.425964,0.047607,0.896423,0.179443,-1.958923,-0.426178,1,2,1,1,4,50.000000
2025-02-15 19:18:55.593,,,,,,,,,,,,,,,,,,,,,,,,,,,,,,,,,,,,,,/muse/elements/jaw_clench
2025-02-15 19:18:55.602,0,0.1729550652111335,0.363497483246081,0,0,-0.04085911756446969,0.2187767734916894,0,0,0.2667611153326347,0.3447881928529723,0,0,0.2142379446563615,0.1497659454318624,0,0,-0.191454753489181,-0.0501943975447544,0,317.1062271062271,798.6080586080586,815.1282051282052,733.7362637362637,795.3846153846154,0.422058,0.051025,0.894836,0.201874,-2.093506,-0.157013,1,2,1,1,4,50.000000
2025-02-15 19:18:55.830,,,,,,,,,,,,,,,,,,,,,,,,,,,,,,,,,,,,,,/muse/elements/jaw_clench
2025-02-15 19:18:56.108,0,0.1133122235892894,0.3951515979081784,0,0,-0.1477556569064717,0.1815700013524015,0,0,0.2604309531754611,0.3444953092486102,0,0,0.2240627899344282,0.2152439050335297,0,0,-0.2164395317678706,0.02578468516529949,0,105.5677655677656,807.8754578754579,790.1465201465202,0,555.6410256410256,0.431458,0.049194,0.901123,0.433655,-2.257996,-0.650482,1,2,1,1,2,50.000000
2025-02-15 19:18:56.118,,,,,,,,,,,,,,,,,,,,,,,,,,,,,,,,,,,,,,/muse/elements/blink
2025-02-15 19:18:56.431,,,,,,,,,,,,,,,,,,,,,,,,,,,,,,,,,,,,,,/muse/elements/jaw_clench
2025-02-15 19:18:56.601,0,0.0009765216693193733,0.4159372699707443,0,0,-0.1219065525688173,0.06248324079758994,0,0,0.2492061539696465,0.1585271938307074,0,0,0.2139555492754797,0.3271255572812999,0,0,-0.1982654080367393,0.1809901910754526,0,275.2014652014652,795.7875457875458,809.4871794871796,0,854.2124542124542,0.427124,0.046631,0.898743,0.859833,-2.699127,-0.127106,1,2,1,1,4,50.000000
2025-02-15 19:18:56.630,,,,,,,,,,,,,,,,,,,,,,,,,,,,,,,,,,,,,,/muse/elements/jaw_clench
2025-02-15 19:18:56.719,,,,,,,,,,,,,,,,,,,,,,,,,,,,,,,,,,,,,,/muse/elements/blink
2025-02-15 19:18:57.111,0,0.08170307315045866,0.3294156476845579,0,0,0.03012272415982107,-0.05427006607209735,0,0,0.2492061539696465,0.1899838102211986,0,0,0.09402363625019207,0.3830915819045127,0,0,-0.1776829471360467,0.2078116569620783,0,544.7619047619048,803.8461538461539,804.2490842490843,280.0366300366301,805.0549450549451,0.430359,0.045776,0.900696,0.276642,-2.026215,-0.059814,1,2,1,1,4,50.000000
2025-02-15 19:18:57.433,,,,,,,,,,,,,,,,,,,,,,,,,,,,,,,,,,,,,,/muse/elements/blink
2025-02-15 19:18:57.601,0,0.1014798015904846,0.2943039643474286,0,0,0.01633988195469995,0.03830149368629527,0,0,0.1525172466694024,0.529445707095182,0,0,0.1181509552436463,0.3227244829026032,0,0,-0.1318888158768159,0.1172055041530991,0,367.8754578754579,799.8168498168499,798.6080586080586,0,483.5164835164835,0.424194,0.048401,0.902710,0.568237,-1.988831,-0.201874,1,2,1,1,2,50.000000
2025-02-15 19:18:57.655,,,,,,,,,,,,,,,,,,,,,,,,,,,,,,,,,,,,,,/muse/elements/jaw_clench
2025-02-15 19:18:57.854,,,,,,,,,,,,,,,,,,,,,,,,,,,,,,,,,,,,,,/muse/elements/blink
2025-02-15 19:18:58.110,0,0.05920303757084989,0.2935566599651811,0,0,-0.03823364315810149,0.062173510187418,0,0,0.06451751472869116,0.6493462792688428,0,0,0.1693019804106146,0.2002733014978388,0,0,-0.2104728046055936,-0.1418312952475028,0,301.3919413919414,796.1904761904763,799.4139194139194,0,693.040293040293,0.425415,0.046204,0.901978,0.807495,-1.951447,-0.373840,1,2,1,1,2,50.000000
2025-02-15 19:18:58.273,,,,,,,,,,,,,,,,,,,,,,,,,,,,,,,,,,,,,,/muse/elements/jaw_clench
2025-02-15 19:18:58.451,,,,,,,,,,,,,,,,,,,,,,,,,,,,,,,,,,,,,,/muse/elements/blink
2025-02-15 19:18:58.451,,,,,,,,,,,,,,,,,,,,,,,,,,,,,,,,,,,,,,/muse/elements/jaw_clench
2025-02-15 19:18:58.602,0,-0.1372514506442219,0.1800376702273962,0,0,-0.2478916674324789,0.05182564244388707,0,0,0.0286104527487014,0.6499889447231832,0,0,0.1732753325680763,0.1542432307414041,0,0,-0.1760623527986024,-0.1701311230240147,0,666.0439560439561,802.6373626373627,807.0695970695971,0,748.2417582417582,0.426147,0.048035,0.899963,0.358887,-1.884155,0.052338,1,2,1,1,2,50.000000
2025-02-15 19:18:58.648,,,,,,,,,,,,,,,,,,,,,,,,,,,,,,,,,,,,,,/muse/elements/jaw_clench
2025-02-15 19:18:58.979,,,,,,,,,,,,,,,,,,,,,,,,,,,,,,,,,,,,,,/muse/elements/blink
2025-02-15 19:18:59.102,0,-0.1154229200475169,0.06388014830394567,0,0,-0.1964585055213725,0.02025485727442916,0,0,0.1266244590866373,0.6475676449819064,0,0,0.09775654054786402,0.1832785566033093,0,0,-0.1812956597772505,-0.04049820478918842,0,323.5531135531136,810.2930402930403,801.4285714285714,1380.842490842491,1201.941391941392,0.429871,0.059509,0.907898,2.669220,-3.080444,-0.500946,1,2,1,1,2,50.000000
2025-02-15 19:18:59.601,0,-0.08889720295539388,-0.1519256775005628,0,0,-0.1223308080235165,-0.04500280872644583,0,0,0.1838969958306771,0.1536502366698566,0,0,0.09669713588449183,0.202575254967847,0,0,-0.101365997780416,-0.04513391899010537,0,847.7655677655678,804.6520146520147,807.4725274725275,593.1135531135532,877.1794871794872,0.428711,0.059204,0.899536,0.269165,-2.183228,-0.328979,1,2,1,1,2,50.000000
2025-02-15 19:18:59.607,,,,,,,,,,,,,,,,,,,,,,,,,,,,,,,,,,,,,,/muse/elements/blink
2025-02-15 19:18:59.673,,,,,,,,,,,,,,,,,,,,,,,,,,,,,,,,,,,,,,/muse/elements/jaw_clench
2025-02-15 19:19:00.102,0,0.06486516694788978,-0.03949815366513398,0,0,0.02840756118051876,0.06415320733210216,0,0,0.2969108321028418,0.3322393694620137,0,0,0.1351591478188551,0.225283672452983,0,0,-0.1067713543031489,-0.01296163210864372,0,265.9340659340659,807.4725274725275,804.2490842490843,0,738.974358974359,0.432495,0.055664,0.900940,-0.493469,-1.525269,-0.657959,1,2,1,1,4,50.000000
2025-02-15 19:19:00.372,,,,,,,,,,,,,,,,,,,,,,,,,,,,,,,,,,,,,,/muse/elements/blink
2025-02-15 19:19:00.372,,,,,,,,,,,,,,,,,,,,,,,,,,,,,,,,,,,,,,/muse/elements/jaw_clench
2025-02-15 19:19:00.602,0,0.1492497711518336,0.02864018762247821,0,0,-0.0001861108011253409,0.06339143470105107,0,0,0.3894093629546365,0.3324065840600327,0,0,0.1715888369620844,0.2270416210046032,0,0,-0.04567624396619899,-0.1153398235660795,0,622.9304029304029,804.2490842490843,806.6666666666667,1626.227106227106,697.0695970695971,0.423340,0.047668,0.900635,0.882263,-2.796326,-1.338348,1,2,1,1,4,50.000000
2025-02-15 19:19:00.808,,,,,,,,,,,,,,,,,,,,,,,,,,,,,,,,,,,,,,/muse/elements/jaw_clench
2025-02-15 19:19:00.896,,,,,,,,,,,,,,,,,,,,,,,,,,,,,,,,,,,,,,/muse/elements/blink
2025-02-15 19:19:00.983,,,,,,,,,,,,,,,,,,,,,,,,,,,,,,,,,,,,,,/muse/elements/jaw_clench
2025-02-15 19:19:01.102,0,0.1561775892285057,0.09107414071810629,0,0,-0.05565267203578608,0.06923041354767362,0,0,0.4559055331872505,0.3780583453668943,0,0,0.1760148110981715,0.2073990851319905,0,0,0.1309873998855724,-0.006354875098292791,0,526.6300366300367,818.3516483516484,810.6959706959707,0,792.967032967033,0.432739,0.051819,0.901001,0.590668,-2.400055,0.029907,1,2,1,1,4,50.000000
2025-02-15 19:19:01.307,,,,,,,,,,,,,,,,,,,,,,,,,,,,,,,,,,,,,,/muse/elements/jaw_clench
2025-02-15 19:19:01.415,,,,,,,,,,,,,,,,,,,,,,,,,,,,,,,,,,,,,,/muse/elements/blink
2025-02-15 19:19:01.502,,,,,,,,,,,,,,,,,,,,,,,,,,,,,,,,,,,,,,/muse/elements/jaw_clench
2025-02-15 19:19:01.602,0,0.2329934692888265,0.1976339438474901,0,0,-0.1303684971148305,-0.01389182053572308,0,0,0.464811178554885,0.3570342378960414,0,0,0.2124788198220977,0.1414541770964442,0,0,0.1808994487055285,-0.03897130433912344,0,153.9194139194139,806.2637362637363,799.0109890109891,1621.391941391941,747.8388278388279,0.421509,0.048706,0.900879,-0.059814,-1.712189,-0.500946,1,2,1,1,4,50.000000
2025-02-15 19:19:01.824,,,,,,,,,,,,,,,,,,,,,,,,,,,,,,,,,,,,,,/muse/elements/blink
2025-02-15 19:19:01.824,,,,,,,,,,,,,,,,,,,,,,,,,,,,,,,,,,,,,,/muse/elements/jaw_clench
2025-02-15 19:19:02.019,,,,,,,,,,,,,,,,,,,,,,,,,,,,,,,,,,,,,,/muse/elements/blink
2025-02-15 19:19:02.102,0,0.2161089710143243,0.2570070959403031,0,0,-0.122913861972244,0.01228468089029553,0,0,0.464811178554885,0.3570342378960414,0,0,0.2210032211557974,0.1234931375229463,0,0,0.1387503867388689,-0.008437257050921253,0,101.9413919413919,806.2637362637363,795.3846153846154,1274.468864468864,504.0659340659341,0.424011,0.049622,0.894348,-1.846771,-1.046753,-0.456085,1,2,1,1,2,50.000000
2025-02-15 19:19:02.610,0,0.2003607197047922,0.278045508292559,0,0,-0.1268269254307389,0.06538751681432328,0,0,0.337082584695878,0.3266531523166258,0,0,0.2063947364055806,0.190858166792296,0,0,-0.03961514241929896,0.01178940673727654,0,186.5567765567766,804.6520146520147,808.6813186813187,0,739.7802197802198,0.418823,0.029358,0.901428,-0.628052,-1.420593,-0.276642,1,2,1,1,4,50.000000
2025-02-15 19:19:02.816,,,,,,,,,,,,,,,,,,,,,,,,,,,,,,,,,,,,,,/muse/elements/jaw_clench
2025-02-15 19:19:03.108,0,-0.02106739693538664,0.1696752093899377,0,0,-0.1298607236006161,0.0473592573042475,0,0,0.3270121453080602,0.2654334457220864,0,0,0.2050333526840476,0.2236593733411703,0,0,-0.08348329879093606,0.0689738257285962,0,164.7985347985348,813.5164835164835,809.4871794871796,404.9450549450549,905.7875457875458,0.417603,0.027100,0.908325,0.426178,-1.749573,-0.201874,1,2,1,1,2,50.000000
2025-02-15 19:19:03.602,0,-0.2022579397374465,-0.05180016909183835,0,0,-0.1233092119566871,0.005160227683522039,0,0,0.2606670851580746,0.3028712853182717,0,0,0.2054478474067153,0.2524290292746047,0,0,0.0483899159510266,0.1393548849607504,0,211.5384615384615,803.4432234432235,805.8608058608058,0,635.0183150183151,0.413818,0.023071,0.913391,0.500946,-2.220612,-0.171967,1,2,1,1,2,50.000000
2025-02-15 19:19:03.933,,,,,,,,,,,,,,,,,,,,,,,,,,,,,,,,,,,,,,/muse/elements/blink
2025-02-15 19:19:03.933,,,,,,,,,,,,,,,,,,,,,,,,,,,,,,,,,,,,,,/muse/elements/jaw_clench
2025-02-15 19:19:04.102,0,-0.07663880137271689,-0.1909373184601069,0,0,-0.2328940137857611,-0.1170221629394109,0,0,0.182294931050663,0.4271982547495546,0,0,0.1671736576878523,0.1132926594945805,0,0,0.09207014457167913,0.1462098991670181,0,720.4395604395604,815.934065934066,792.1611721611722,142.6373626373626,319.9267399267399,0.417236,0.023376,0.909912,1.921539,-3.319702,0.201874,1,2,1,1,2,50.000000
2025-02-15 19:19:04.382,,,,,,,,,,,,,,,,,,,,,,,,,,,,,,,,,,,,,,/muse/elements/blink
2025-02-15 19:19:04.611,0,0.0992822640832613,-0.2621423901434929,0,0,-0.2398215027733038,-0.1193128549426159,0,0,0.3757434864639508,0.5130970126601572,0,0,0.3087978810616819,0.3150326770206919,0,0,0.09854086215808552,0.1980996113199104,0,481.0989010989011,804.2490842490843,815.1282051282052,0,427.1062271062271,0.410767,0.030945,0.914551,0.186920,-1.614990,0.052338,1,2,1,1,2,50.000000
2025-02-15 19:19:04.642,,,,,,,,,,,,,,,,,,,,,,,,,,,,,,,,,,,,,,/muse/elements/jaw_clench
2025-02-15 19:19:04.729,,,,,,,,,,,,,,,,,,,,,,,,,,,,,,,,,,,,,,/muse/elements/blink
2025-02-15 19:19:05.102,0,0.369859178910562,0.4814846500352956,0,0,0.3891332933472752,0.1285766727480175,0,0,1.109355700331294,0.593556403358914,0,0,0.8282220023295048,0.4825783732683772,0,0,0.1691286710407886,0.2351504799244999,0,293.3333333333333,801.025641025641,808.2783882783883,1620.989010989011,508.4981684981685,0.419250,0.033508,0.904724,0.553284,-2.190704,-0.777588,1,2,1,1,4,50.000000
2025-02-15 19:19:05.338,,,,,,,,,,,,,,,,,,,,,,,,,,,,,,,,,,,,,,/muse/elements/blink
2025-02-15 19:19:05.338,,,,,,,,,,,,,,,,,,,,,,,,,,,,,,,,,,,,,,/muse/elements/jaw_clench
2025-02-15 19:19:05.602,0,0.2996295807305968,0.555809859127633,0,0,0.4590478484160804,0.1593296108348738,0,0,1.109355700331294,0.5142152400152654,0,0,0.8581311490420432,0.6300626209608404,0,0,0.1101186457985888,0.1860800442613012,0,369.4871794871795,799.4139194139194,813.5164835164835,0,1154.395604395604,0.413818,0.029846,0.909363,-0.044861,-1.824341,-0.456085,1,2,1,1,4,50.000000
2025-02-15 19:19:05.966,,,,,,,,,,,,,,,,,,,,,,,,,,,,,,,,,,,,,,/muse/elements/blink
2025-02-15 19:19:06.102,0,0.2240609133721755,0.5372106161897878,0,0,0.3859686911522832,0.1428929706172936,0,0,1.109355700331294,0.4135266138606375,0,0,0.7727995049157096,0.5719762945719017,0,0,0.08589529966146089,0.06933950753499858,0,184.5421245421246,805.4578754578755,815.934065934066,0,938.8278388278388,0.407837,0.027283,0.908752,0.104675,-2.108459,-0.157013,1,2,1,1,4,50.000000
2025-02-15 19:19:06.466,,,,,,,,,,,,,,,,,,,,,,,,,,,,,,,,,,,,,,/muse/elements/blink
2025-02-15 19:19:06.466,,,,,,,,,,,,,,,,,,,,,,,,,,,,,,,,,,,,,,/muse/elements/jaw_clench
2025-02-15 19:19:06.602,0,0.07291251319051688,-0.02620558711892268,0,0,-0.07389718177355072,-0.2102212841032768,0,0,0.4655877181491754,0.01489649687413476,0,0,0.3089416150963452,0.4561852331158638,0,0,-0.006294547986641748,-0.03732599990201303,0,55.2014652014652,817.948717948718,804.2490842490843,0,352.1611721611721,0.405945,0.023987,0.910217,0.755157,-3.080444,0.186920,1,2,1,1,4,50.000000
2025-02-15 19:19:06.895,,,,,,,,,,,,,,,,,,,,,,,,,,,,,,,,,,,,,,/muse/elements/blink
2025-02-15 19:19:06.895,,,,,,,,,,,,,,,,,,,,,,,,,,,,,,,,,,,,,,/muse/elements/jaw_clench
2025-02-15 19:19:07.068,,,,,,,,,,,,,,,,,,,,,,,,,,,,,,,,,,,,,,/muse/elements/jaw_clench
2025-02-15 19:19:07.107,0,0.2578573717876392,-0.1692739577120096,0,0,-0.05355065755698461,-0.2628742742121478,0,0,0.2189268370973044,0.05177780247623207,0,0,0.2207230012584012,0.2883791046973913,0,0,0.08750330942923043,0.1134210128556556,0,504.8717948717949,808.6813186813187,794.981684981685,0,571.7582417582418,0.419739,0.026062,0.901245,-1.278534,-2.332764,1.622467,1,2,1,1,2,50.000000
2025-02-15 19:19:07.412,,,,,,,,,,,,,,,,,,,,,,,,,,,,,,,,,,,,,,/muse/elements/blink
2025-02-15 19:19:07.602,0,0.218714705058195,-0.04379580346160115,0,0,-0.01963185304970229,-0.1328064725556277,0,0,0.164378849298336,0.1802075675917008,0,0,0.1582515889192894,0.295227570916936,0,0,0.06291975227853928,0.1299687232925145,0,523.4065934065934,805.8608058608058,798.2051282051282,0,820.3663003663004,0.408386,0.004150,0.905090,-0.792542,-1.921539,1.151428,1,2,1,1,4,50.000000
2025-02-15 19:19:07.777,,,,,,,,,,,,,,,,,,,,,,,,,,,,,,,,,,,,,,/muse/elements/blink
2025-02-15 19:19:08.099,,,,,,,,,,,,,,,,,,,,,,,,,,,,,,,,,,,,,,/muse/elements/blink
2025-02-15 19:19:08.115,0,0.08395633688438746,0.1127588819944012,0,0,0.0001958664040853169,0.05728910663981397,0,0,0.1695741324286293,0.2415594155749219,0,0,0.149582431183321,0.3082496954664399,0,0,-0.03355806311609955,0.06832417737216548,0,569.3406593406594,805.8608058608058,792.1611721611722,1620.989010989011,691.4285714285714,0.403809,-0.013672,0.906494,0.426178,-1.824341,0.837402,1,2,1,1,4,50.000000
2025-02-15 19:19:08.602,0,-0.2195849015720839,0.1299336429106843,0,0,-0.1134677507409586,0.1568956221650061,0,0,0.05152629009955171,0.3065380496547384,0,0,0.1164772872818424,0.3147192137032762,0,0,-0.1325779211609547,0.00937860152185763,0,8.058608058608058,811.0989010989011,798.6080586080586,1620.989010989011,458.1318681318681,0.410950,-0.010559,0.908020,0.740204,-2.467346,-0.523376,1,2,1,1,4,50.000000
2025-02-15 19:19:08.722,,,,,,,,,,,,,,,,,,,,,,,,,,,,,,,,,,,,,,/muse/elements/blink
2025-02-15 19:19:08.809,,,,,,,,,,,,,,,,,,,,,,,,,,,,,,,,,,,,,,/muse/elements/jaw_clench
2025-02-15 19:19:09.004,,,,,,,,,,,,,,,,,,,,,,,,,,,,,,,,,,,,,,/muse/elements/blink
2025-02-15 19:19:09.109,0,-0.2035269269361701,0.5053753771410648,0,0,-0.1223536161600739,0.2131749271204917,0,0,-0.02041917614401814,0.2558497716273444,0,0,0.1176015555783214,0.3787124751413593,0,0,-0.09055437989115597,0.2501396847227815,0,557.6556776556777,805.4578754578755,800.6227106227107,0,940.8424908424909,0.418457,-0.012512,0.904480,0.216827,-1.644897,-0.179443,1,2,1,1,4,50.000000
2025-02-15 19:19:09.325,,,,,,,,,,,,,,,,,,,,,,,,,,,,,,,,,,,,,,/muse/elements/blink
2025-02-15 19:19:09.601,0,-0.005955402535948246,0.6274218781191235,0,0,-0.2094135296229059,0.2616848170310023,0,0,0.09964726668815188,0.194355291554491,0,0,0.1183186609853826,0.3471710643600164,0,0,-0.008891535888041074,0.3174577041425245,0,442.014652014652,798.6080586080586,807.8754578754579,0,670.8791208791209,0.411987,-0.012451,0.911133,1.099091,-1.562653,-0.396271,1,2,1,1,4,50.000000
2025-02-15 19:19:10.112,0,0.09104841260245704,0.5907577182943269,0,0,-0.2076934596824681,0.2952460902204221,0,0,0.325723163325615,0.09322041447727687,0,0,0.1931081959595313,0.2955807904577874,0,0,0.006253828571285096,0.2998216398369772,0,102.3443223443224,799.4139194139194,801.025641025641,0,35.05494505494506,0.435669,-0.028992,0.909058,-0.239258,-5.734711,-2.736511,1,2,1,1,4,50.000000
2025-02-15 19:19:10.226,,,,,,,,,,,,,,,,,,,,,,,,,,,,,,,,,,,,,,/muse/elements/blink
2025-02-15 19:19:10.608,0,0.09196843300677798,0.3734798329007372,0,0,-0.1029065913500809,0.2636894317798505,0,0,0.3464502928679161,0.07864666867763834,0,0,0.1999222190661755,0.1022800773383579,0,0,0.001985777746121331,-0.013389405324541,0,93.07692307692308,795.3846153846154,797.3992673992674,0,1170.10989010989,0.460388,-0.007690,0.898071,0.725250,6.684265,-2.265472,1,4,1,1,4,50.000000
2025-02-15 19:19:10.826,,,,,,,,,,,,,,,,,,,,,,,,,,,,,,,,,,,,,,/muse/elements/blink
2025-02-15 19:19:11.063,,,,,,,,,,,,,,,,,,,,,,,,,,,,,,,,,,,,,,/muse/elements/blink
2025-02-15 19:19:11.102,0,-0.05010173220032766,0.2943359739243238,0,0,-0.009529393531264221,0.2510555126810121,0,0,0.3476400215342226,0.3885814234912216,0,0,0.2132318825593933,0.05562194204446642,0,0,-0.06283379179205185,-0.2608113454515795,0,302.1978021978022,802.2344322344322,796.5934065934066,1620.989010989011,0,0.355774,-0.085632,0.924194,-6.048737,-8.089905,2.826233,1,4,1,1,4,50.000000
2025-02-15 19:19:11.579,,,,,,,,,,,,,,,,,,,,,,,,,,,,,,,,,,,,,,/muse/elements/blink
2025-02-15 19:19:11.601,0,0.4356465047195616,0.5054794433183158,0,0,0.1933545004688521,0.3620599308979676,0,0,0.4259843546438712,0.3949029779744604,0,0,0.2798217232387198,0.05212373171896143,0,0,-0.1281120491716889,-0.3526831935939346,0,300.5860805860806,794.5787545787546,792.967032967033,1620.989010989011,1403.809523809524,0.387817,-0.080261,0.911133,4.501038,-1.375732,4.052429,1,4,1,1,4,50.000000
2025-02-15 19:19:12.102,0,0.5170828850602355,0.4657988828717358,0,0,0.1625857338030111,0.4440551717322208,0,0,0.2738550820698281,0.4512113889399966,0,0,0.2654319090971297,0.08714464760768026,0,0,-0.3045944084251481,-0.2925423157444534,0,1050.03663003663,796.5934065934066,812.7106227106227,1620.989010989011,965.0183150183151,0.356628,-0.105835,0.923279,-0.119629,1.091614,5.308533,1,4,1,1,2,50.000000
2025-02-15 19:19:12.602,0,0.5189446185734448,0.4353121077135849,0,0,0.1864165738373059,0.4539690288083444,0,0,0.3705401956685791,0.4629450864523488,0,0,0.2108281191354343,0.135345250243668,0,0,-0.3708573858230022,-0.1809906695689136,0,658.3882783882784,809.0842490842491,798.2051282051282,1112.490842490843,110,0.357422,-0.078430,0.922485,4.396362,-4.717865,-0.149536,1,4,1,1,4,50.000000
2025-02-15 19:19:12.667,,,,,,,,,,,,,,,,,,,,,,,,,,,,,,,,,,,,,,/muse/elements/blink
2025-02-15 19:19:12.803,,,,,,,,,,,,,,,,,,,,,,,,,,,,,,,,,,,,,,/muse/elements/jaw_clench
2025-02-15 19:19:12.998,,,,,,,,,,,,,,,,,,,,,,,,,,,,,,,,,,,,,,/muse/elements/jaw_clench
2025-02-15 19:19:13.102,0,0.09961448992219914,0.2391950463614749,0,0,0.03158314363958931,0.2671417148055113,0,0,0.3559370910802416,0.4254610985315006,0,0,0.1269120739492681,0.247785057330264,0,0,-0.3432846540101038,-0.1531117989567801,0,234.9084249084249,802.2344322344322,798.2051282051282,3.223443223443224,682.5641025641025,0.405273,-0.051392,0.901550,1.173859,-5.428162,-0.665436,1,2,1,1,4,50.000000
2025-02-15 19:19:13.170,,,,,,,,,,,,,,,,,,,,,,,,,,,,,,,,,,,,,,/muse/elements/blink
2025-02-15 19:19:13.498,,,,,,,,,,,,,,,,,,,,,,,,,,,,,,,,,,,,,,/muse/elements/blink
2025-02-15 19:19:13.602,0,-0.0850799376726204,0.2872773371487767,0,0,0.03196997543786985,0.1594158110452575,0,0,0.3299706034013857,0.4115141367570565,0,0,0.1436527266395154,0.2559297569206354,0,0,-0.2498726527192421,-0.08437382509034731,0,788.9377289377289,811.0989010989011,806.2637362637363,0,1082.271062271062,0.418640,-0.036682,0.906616,-0.523376,-1.054230,-0.583191,1,4,1,1,4,50.000000
2025-02-15 19:19:13.713,,,,,,,,,,,,,,,,,,,,,,,,,,,,,,,,,,,,,,/muse/elements/blink
2025-02-15 19:19:14.018,,,,,,,,,,,,,,,,,,,,,,,,,,,,,,,,,,,,,,/muse/elements/jaw_clench
2025-02-15 19:19:14.102,0,-0.2519104831110645,0.1482448858225387,0,0,-0.0782510778636568,0.04426601408221206,0,0,0.3330282400395019,0.3377118647003753,0,0,0.1737181817955795,0.2112149471306868,0,0,-0.1567559316326884,-0.02237436578010203,0,570.5494505494505,801.4285714285714,801.4285714285714,1148.351648351648,845.3479853479854,0.407349,-0.038452,0.901489,0.979462,-1.929016,-0.157013,1,2,1,1,4,50.000000
2025-02-15 19:19:14.210,,,,,,,,,,,,,,,,,,,,,,,,,,,,,,,,,,,,,,/muse/elements/blink
2025-02-15 19:19:14.210,,,,,,,,,,,,,,,,,,,,,,,,,,,,,,,,,,,,,,/muse/elements/jaw_clench
2025-02-15 19:19:14.612,0,-0.1948484245556344,0.08754485150756772,0,0,-0.05953081094597899,-0.03315915164550175,0,0,0.4295529766258482,0.1900323335998215,0,0,0.1728382252203078,0.08131608116145157,0,0,-0.1620587246994196,-0.03915893709367699,0,398.0952380952381,806.6666666666667,804.2490842490843,0,724.8717948717949,0.404907,-0.041809,0.911011,1.607513,-2.915955,-0.515900,1,2,1,1,4,50.000000
2025-02-15 19:19:14.617,,,,,,,,,,,,,,,,,,,,,,,,,,,,,,,,,,,,,,/muse/elements/blink
2025-02-15 19:19:15.003,,,,,,,,,,,,,,,,,,,,,,,,,,,,,,,,,,,,,,/muse/elements/jaw_clench
2025-02-15 19:19:15.107,0,-0.04742736803413428,-0.07827013354194258,0,0,-0.07905724448713335,-0.2398405004680945,0,0,0.444870290122683,0.1914918436871853,0,0,0.3031048221513639,-0.04381048038096617,0,0,-0.2490176290601363,-0.2176644406448905,0,400.5128205128205,798.2051282051282,801.8315018315019,1356.263736263736,841.7216117216118,0.409302,-0.027405,0.906494,1.069183,-1.816864,-0.859833,1,2,1,1,2,50.000000
2025-02-15 19:19:15.602,0,0.1204667691618667,-0.01193428086505685,0,0,0.01899290706473527,-0.2579312482447882,0,0,0.3893350180027843,0.2398373938994908,0,0,0.2708448484125754,-0.02383371263778892,0,0,-0.2835392872512324,-0.3106452575014221,0,822.7838827838829,793.7728937728938,812.3076923076924,1620.989010989011,819.1575091575091,0.404724,-0.018127,0.916077,2.863617,-0.530853,-0.112152,1,2,1,1,4,50.000000
2025-02-15 19:19:15.945,,,,,,,,,,,,,,,,,,,,,,,,,,,,,,,,,,,,,,/muse/elements/blink
2025-02-15 19:19:16.111,0,0.3536531535425838,0.3375714504255722,0,0,0.1285357511328421,0.135118188492983,0,0,0.2926379375827127,0.5080667508307424,0,0,0.2298083248279361,0.01348814183890304,0,0,-0.292523796966564,-0.2878561122893779,0,236.5201465201465,805.0549450549451,805.0549450549451,1620.989010989011,1024.652014652015,0.389709,-0.000122,0.926331,2.100983,-2.295380,0.381317,1,2,1,1,4,50.000000
2025-02-15 19:19:16.116,,,,,,,,,,,,,,,,,,,,,,,,,,,,,,,,,,,,,,/muse/elements/blink
2025-02-15 19:19:16.605,0,0.3715564257247789,0.4934168382376936,0,0,0.1410818905202255,0.2378036844215629,0,0,0.24620188079222,0.4992232173583708,0,0,0.007923424483250932,0.01235019071708243,0,0,-0.2696547220686835,-0.2215638628794074,0,511.7216117216117,809.0842490842491,798.6080586080586,502.4542124542125,366.2637362637363,0.393555,0.001099,0.916321,0.523376,-2.362671,-0.037384,1,4,1,1,2,50.000000
2025-02-15 19:19:16.652,,,,,,,,,,,,,,,,,,,,,,,,,,,,,,,,,,,,,,/muse/elements/blink
2025-02-15 19:19:16.932,,,,,,,,,,,,,,,,,,,,,,,,,,,,,,,,,,,,,,/muse/elements/blink
2025-02-15 19:19:17.102,0,0.2926182863909014,0.5635019203265468,0,0,0.09432080781579322,0.2406732346465006,0,0,0.3157035573064927,0.5033032532351648,0,0,-0.02110999283821499,0.04402917383206062,0,0,-0.2897818607321957,-0.2326368450512007,0,531.8681318681319,807.0695970695971,803.8461538461539,811.9047619047619,282.8571428571429,0.396484,-0.007812,0.914673,0.620575,-2.250519,-0.388794,1,2,1,1,4,50.000000
2025-02-15 19:19:17.601,0,0.02357093729943951,0.3858562973567389,0,0,0.0319045755174609,0.03799974503666748,0,0,0.3682888486819736,0.3008307767479816,0,0,0.1122418729073782,0.1291506183860686,0,0,-0.1794575901245538,-0.2088686918124092,0,521.7948717948718,795.7875457875458,809.4871794871796,108.3882783882784,807.8754578754579,0.396118,-0.001709,0.919128,0.740204,-2.168274,0.351410,1,4,1,1,4,50.000000
2025-02-15 19:19:17.772,,,,,,,,,,,,,,,,,,,,,,,,,,,,,,,,,,,,,,/muse/elements/blink
2025-02-15 19:19:18.053,,,,,,,,,,,,,,,,,,,,,,,,,,,,,,,,,,,,,,/muse/elements/blink
2025-02-15 19:19:18.111,0,-0.1045887218585664,0.1581343177918166,0,0,0.08207014046948599,0.04442859239712913,0,0,0.3578212208132412,0.2762981586255631,0,0,0.1767769061447678,0.1851584126082787,0,0,-0.0866825802668256,-0.1569988104488376,0,628.974358974359,799.0109890109891,811.9047619047619,1373.186813186813,885.2380952380953,0.386963,-0.010498,0.925171,-0.261688,-1.689758,-0.373840,1,2,1,1,4,50.000000
2025-02-15 19:19:18.606,0,-0.2816679127991618,-0.01505230566121033,0,0,0.007621167874662378,0.1784761438240139,0,0,0.3291286000130864,0.1488848656488474,0,0,0.2842627158027092,0.2140989490044291,0,0,-0.04575289561383181,-0.1416604810763522,0,700.6959706959707,806.2637362637363,803.040293040293,431.1355311355312,646.7032967032967,0.388550,-0.012939,0.918396,0.844879,-2.938385,-0.052338,1,2,1,1,4,50.000000
2025-02-15 19:19:19.102,0,-0.3956108025275327,-0.02744123267637178,0,0,-0.1198378512960471,0.1910651680667248,0,0,0.2832925144696705,0.1847719001109392,0,0,0.3173579309511929,0.2332164816444239,0,0,-0.1013603964862651,-0.1700901692232071,0,524.2124542124542,795.7875457875458,795.3846153846154,0,609.2307692307693,0.391785,-0.015076,0.920776,0.807495,-2.317810,0.074768,1,2,1,1,2,50.000000
2025-02-15 19:19:19.277,,,,,,,,,,,,,,,,,,,,,,,,,,,,,,,,,,,,,,/muse/elements/blink
2025-02-15 19:19:19.602,0,-0.5736125218314638,0.1058850167499442,0,0,-0.2539516572300577,0.1700424365484087,0,0,0.1811586306227436,0.3118796280942124,0,0,0.3575856116367798,0.2593042343777781,0,0,-0.1518374910250131,-0.1813764391196295,0,938.021978021978,804.6520146520147,800.2197802197802,416.2271062271062,615.6776556776557,0.388306,-0.020142,0.921448,0.321503,-1.869202,-0.500946,1,2,1,1,2,50.000000
2025-02-15 19:19:19.694,,,,,,,,,,,,,,,,,,,,,,,,,,,,,,,,,,,,,,/muse/elements/blink
2025-02-15 19:19:19.694,,,,,,,,,,,,,,,,,,,,,,,,,,,,,,,,,,,,,,/muse/elements/jaw_clench
2025-02-15 19:19:20.117,0,-0.3573709603141807,0.1921060292398862,0,0,-0.09240684156678859,-0.04471538757128477,0,0,0.2695968816443759,0.3099684779618211,0,0,0.3851563951178366,0.3733204421187332,0,0,-0.1678568447192367,-0.2200974596806341,0,443.6263736263737,807.4725274725275,803.8461538461539,0,767.1794871794872,0.391663,-0.011414,0.920532,0.740204,-2.504730,-0.284119,1,2,1,1,2,50.000000
2025-02-15 19:19:20.208,,,,,,,,,,,,,,,,,,,,,,,,,,,,,,,,,,,,,,/muse/elements/blink
2025-02-15 19:19:20.208,,,,,,,,,,,,,,,,,,,,,,,,,,,,,,,,,,,,,,/muse/elements/jaw_clench
2025-02-15 19:19:20.400,,,,,,,,,,,,,,,,,,,,,,,,,,,,,,,,,,,,,,/muse/elements/jaw_clench
2025-02-15 19:19:20.595,,,,,,,,,,,,,,,,,,,,,,,,,,,,,,,,,,,,,,/muse/elements/blink
2025-02-15 19:19:20.613,0,-0.231974428161975,0.1813314623014991,0,0,-0.06111266932773343,-0.06737691846695076,0,0,0.2706912604601656,0.1905856930454053,0,0,0.3751862431566312,0.3212025044508813,0,0,-0.187616258801875,-0.2415756078165643,0,1165.274725274725,804.6520146520147,786.5201465201466,0,1462.637362637363,0.393433,-0.005066,0.920532,2.235565,-3.102875,0.553284,1,2,1,1,2,50.000000
2025-02-15 19:19:21.004,,,,,,,,,,,,,,,,,,,,,,,,,,,,,,,,,,,,,,/muse/elements/blink
2025-02-15 19:19:21.091,,,,,,,,,,,,,,,,,,,,,,,,,,,,,,,,,,,,,,/muse/elements/jaw_clench
2025-02-15 19:19:21.106,0,-0.1496743937349327,0.04339434789429201,0,0,0.03365235312332911,0.1073460685562513,0,0,0.3100860325664538,0.3440296048411284,0,0,0.3134340447712317,0.3069573880450088,0,0,-0.256826245209786,-0.2452639672973602,0,524.2124542124542,809.4871794871796,806.6666666666667,0,900.952380952381,0.399109,-0.001709,0.914612,0.014954,-1.801910,-0.029907,1,4,1,1,2,50.000000
2025-02-15 19:19:21.198,,,,,,,,,,,,,,,,,,,,,,,,,,,,,,,,,,,,,,/muse/elements/blink
2025-02-15 19:19:21.327,,,,,,,,,,,,,,,,,,,,,,,,,,,,,,,,,,,,,,/muse/elements/jaw_clench
2025-02-15 19:19:21.602,0,-0.08206273428602436,0.02508578160631852,0,0,0.0419445316801351,0.2272224988113357,0,0,0.277916837317834,0.3606286222874441,0,0,0.2373269777070978,0.1819790278988177,0,0,-0.3118015620692419,-0.1937637942678158,0,908.2051282051282,805.0549450549451,808.6813186813187,421.0622710622711,708.7545787545788,0.405273,0.002869,0.913269,0.433655,-2.392578,-0.224304,1,2,1,1,4,50.000000
2025-02-15 19:19:21.604,,,,,,,,,,,,,,,,,,,,,,,,,,,,,,,,,,,,,,/muse/elements/blink
2025-02-15 19:19:22.101,0,-0.1150967582988353,0.09961245612455917,0,0,-0.02367554958952855,0.2598653057886983,0,0,0.2405680939689225,0.3575311729795584,0,0,0.1285903230240008,0.2271036395024004,0,0,-0.3090441572530047,-0.1342467200082427,0,751.8681318681319,803.040293040293,791.3553113553114,307.0329670329671,739.3772893772893,0.401428,0.008545,0.913818,1.173859,-2.960815,0.149536,1,2,1,1,4,50.000000
2025-02-15 19:19:22.228,,,,,,,,,,,,,,,,,,,,,,,,,,,,,,,,,,,,,,/muse/elements/jaw_clench
2025-02-15 19:19:22.401,,,,,,,,,,,,,,,,,,,,,,,,,,,,,,,,,,,,,,/muse/elements/jaw_clench
2025-02-15 19:19:22.614,0,-0.02095010632370553,0.1705963008844212,0,0,-0.1830905939600038,0.1747938097438598,0,0,0.2561492715570943,0.354993699498071,0,0,0.1164041804194234,0.3231571074784901,0,0,-0.3283297043884245,-0.1576254873199174,0,562.0879120879121,808.6813186813187,805.0549450549451,0,946.8864468864469,0.402954,-0.000916,0.910950,-0.456085,-1.801910,-0.261688,1,2,1,1,4,50.000000
2025-02-15 19:19:22.643,,,,,,,,,,,,,,,,,,,,,,,,,,,,,,,,,,,,,,/muse/elements/blink
2025-02-15 19:19:22.643,,,,,,,,,,,,,,,,,,,,,,,,,,,,,,,,,,,,,,/muse/elements/jaw_clench
2025-02-15 19:19:22.922,,,,,,,,,,,,,,,,,,,,,,,,,,,,,,,,,,,,,,/muse/elements/blink
2025-02-15 19:19:23.115,0,0.03654096425380633,0.03277382419800209,0,0,-0.3275367195146857,-0.07302787867618879,0,0,0.234340961265333,0.150211689647668,0,0,0.05450482322776911,0.3078035170740328,0,0,-0.3532405858063951,-0.2144147843657212,0,392.051282051282,796.5934065934066,805.0549450549451,311.0622710622711,607.6190476190476,0.401306,-0.000366,0.915466,0.231781,-1.906586,-0.097198,1,2,1,1,4,50.000000
2025-02-15 19:19:23.602,0,0.04928342798918776,-0.214191434500997,0,0,-0.1259209022595977,-0.2850972232768769,0,0,0.1988537531292414,0.1434154035138178,0,0,0.07083550481614599,0.2513230997821769,0,0,-0.2754949048373134,-0.2218312800107939,0,718.8278388278388,805.4578754578755,805.0549450549451,33.44322344322345,948.901098901099,0.399109,-0.009583,0.913452,-0.687866,-1.637421,-0.224304,1,2,1,1,2,50.000000
2025-02-15 19:19:24.053,,,,,,,,,,,,,,,,,,,,,,,,,,,,,,,,,,,,,,/muse/elements/blink
2025-02-15 19:19:24.102,0,-0.08141776080251366,-0.4680480508537196,0,0,0.0097451506962918,-0.1644038381661539,0,0,0.2875280306429293,0.2221406089861557,0,0,0.1529163062041927,0.1301790176695589,0,0,-0.2180896983210565,-0.1341931615381899,0,968.6446886446887,802.2344322344322,810.2930402930403,73.73626373626374,984.3589743589744,0.398987,-0.009277,0.918213,-0.067291,-1.936493,-0.949554,1,2,1,1,2,50.000000
2025-02-15 19:19:24.231,,,,,,,,,,,,,,,,,,,,,,,,,,,,,,,,,,,,,,/muse/elements/blink
2025-02-15 19:19:24.611,0,-0.3675590562309134,-0.5018406301128078,0,0,0.05220455376455297,-0.07015845897639718,0,0,0.1713972210420374,0.1046448518120465,0,0,0.1998340703327441,0.1185896094565056,0,0,-0.1742101103952736,-0.157248939639576,0,678.1318681318681,805.0549450549451,807.8754578754579,465.7875457875458,713.1868131868132,0.387573,-0.024719,0.917236,0.717773,-2.975769,0.964508,1,2,1,1,4,50.000000
2025-02-15 19:19:25.106,0,-0.5839271612430992,-0.2701845547786568,0,0,-0.08526791702029016,0.08796094140356975,0,0,0.1813973223893113,0.05707425903001571,0,0,0.2060451161997667,0.1416698642909022,0,0,-0.2411924373517253,-0.2222714729158508,0,427.5091575091575,796.996336996337,802.2344322344322,46.33699633699634,747.032967032967,0.398560,-0.014648,0.918640,-0.456085,-1.712189,0.059814,1,2,1,1,2,50.000000
2025-02-15 19:19:25.602,0,-0.4856022084508905,-0.1831890107710699,0,0,-0.2104986285893196,0.04759955698582496,0,0,0.09940722513303207,0.07292873060051053,0,0,0.2010323394246873,0.1456459825794119,0,0,-0.2671343166396173,-0.3126661795902492,0,955.3479853479854,801.4285714285714,803.8461538461539,899.7435897435897,776.4468864468864,0.389343,-0.026978,0.917175,0.874786,-2.265472,-0.216827,1,2,1,1,2,50.000000
2025-02-15 19:19:25.864,,,,,,,,,,,,,,,,,,,,,,,,,,,,,,,,,,,,,,/muse/elements/jaw_clench
2025-02-15 19:19:26.103,0,-0.364904422547449,-0.2268358673289333,0,0,-0.1661864823947095,0.07648079220931767,0,0,0.1870467761710257,0.3849414331849392,0,0,0.4076899668766502,0.3594677258800996,0,0,-0.2085618742915527,-0.2504425215930955,0,258.6813186813187,812.3076923076924,807.4725274725275,0,624.9450549450549,0.390747,-0.021851,0.917053,0.366364,-1.906586,-0.194397,1,2,1,1,2,50.000000
2025-02-15 19:19:26.601,0,-0.2096771979634347,-0.3606583753336836,0,0,-0.03540523500485877,0.02453242082400615,0,0,0.2223697423687533,0.3849414331849392,0,0,0.439743197501525,0.4358891987404459,0,0,-0.02385735459055078,-0.2110592499541374,0,639.8534798534798,799.8168498168499,792.967032967033,389.2307692307692,786.1172161172161,0.383057,-0.024353,0.927307,0.882263,-2.295380,-0.179443,1,2,1,1,2,50.000000
2025-02-15 19:19:26.683,,,,,,,,,,,,,,,,,,,,,,,,,,,,,,,,,,,,,,/muse/elements/jaw_clench
2025-02-15 19:19:27.107,0,0.2014453863927182,-0.4253141939426804,0,0,0.1873324932959932,0.02811115384092358,0,0,0.3017043811949747,0.4121903354934259,0,0,0.4306048231238411,0.4610212739860466,0,0,0.03361461844877846,-0.1200407181848989,0,276.4102564102564,795.7875457875458,803.040293040293,0,836.4835164835165,0.383118,-0.025391,0.913940,1.734619,-2.721558,-0.553284,1,2,1,1,2,50.000000
2025-02-15 19:19:27.178,,,,,,,,,,,,,,,,,,,,,,,,,,,,,,,,,,,,,,/muse/elements/blink
2025-02-15 19:19:27.436,,,,,,,,,,,,,,,,,,,,,,,,,,,,,,,,,,,,,,/muse/elements/jaw_clench
2025-02-15 19:19:27.602,0,0.2424607282920497,-0.1434652102764273,0,0,0.2202412566455074,-0.004089746718598034,0,0,0.3014305713492741,0.4475905971919978,0,0,0.313943972281342,0.3297786295015512,0,0,0.03544617979400904,-0.1154280515176061,0,1041.575091575092,812.7106227106227,797.8021978021978,559.6703296703297,1032.307692307692,0.407288,-0.001953,0.912415,2.340240,-4.194489,1.846771,1,2,1,1,2,50.000000
2025-02-15 19:19:27.693,,,,,,,,,,,,,,,,,,,,,,,,,,,,,,,,,,,,,,/muse/elements/blink
2025-02-15 19:19:27.693,,,,,,,,,,,,,,,,,,,,,,,,,,,,,,,,,,,,,,/muse/elements/jaw_clench
2025-02-15 19:19:28.037,,,,,,,,,,,,,,,,,,,,,,,,,,,,,,,,,,,,,,/muse/elements/jaw_clench
2025-02-15 19:19:28.101,0,0.1862455449903651,0.1645047890213267,0,0,0.1468346254935002,-0.03319312775258845,0,0,0.258050832664294,0.314398893402503,0,0,0.2721671833539396,0.2755189543973439,0,0,-0.05344865550952036,-0.0930589377455892,0,299.7802197802198,796.996336996337,796.1904761904763,323.5531135531136,522.6007326007326,0.424927,0.004822,0.903381,2.355194,-5.001984,0.448608,1,2,1,1,2,50.000000
2025-02-15 19:19:28.123,,,,,,,,,,,,,,,,,,,,,,,,,,,,,,,,,,,,,,/muse/elements/blink
2025-02-15 19:19:28.611,0,-0.0902051803419651,0.2824387171206062,0,0,-0.07451152266140998,0.08243616427244452,0,0,0.216756729079573,0.3147334935893313,0,0,0.2550285565354876,0.3087771577008007,0,0,-0.1087242376247689,-0.05876287168052449,0,641.8681318681319,796.5934065934066,798.2051282051282,0,742.6007326007326,0.422058,-0.018677,0.903931,-4.598236,-0.919647,-3.476715,1,2,1,1,2,50.000000
2025-02-15 19:19:28.725,,,,,,,,,,,,,,,,,,,,,,,,,,,,,,,,,,,,,,/muse/elements/blink
2025-02-15 19:19:29.117,0,0.05873089254385616,0.2741847054871177,0,0,-0.235888830573411,0.01877947013079236,0,0,0.1096944940611854,0.2146348990531069,0,0,0.2369075790315231,0.3958421995055452,0,0,-0.1029792457605246,-0.004946813598790828,0,979.92673992674,800.6227106227107,803.4432234432235,630.989010989011,1124.578754578755,0.444092,0.009338,0.901001,2.878571,-5.241241,2.198181,1,2,1,1,4,50.000000
2025-02-15 19:19:29.616,0,0.1143587437669327,0.08723642045656001,0,0,-0.1955770929703356,0.02426080650673333,0,0,0.1430193778633766,0.3762079626424357,0,0,0.2427508801861839,0.3101529295018546,0,0,-0.07117739716383124,-0.05292473784669992,0,757.9120879120879,804.6520146520147,801.4285714285714,0,483.919413919414,0.464539,-0.005005,0.887878,-0.545807,-2.758942,1.308441,1,2,1,1,4,50.000000
2025-02-15 19:19:29.942,,,,,,,,,,,,,,,,,,,,,,,,,,,,,,,,,,,,,,/muse/elements/blink
2025-02-15 19:19:30.107,0,0.1787249104438379,-0.02208416972782972,0,0,-0.01554499806881875,0.04463975241276266,0,0,0.1672901103564119,0.4721234666920206,0,0,0.2980767263470854,0.1863494312410459,0,0,-0.02668219925615612,-0.1292266916547146,0,728.901098901099,811.0989010989011,807.8754578754579,985.9706959706961,1057.692307692308,0.462219,-0.028992,0.890930,-1.809387,-1.338348,-0.142059,1,2,1,1,2,50.000000
2025-02-15 19:19:30.134,,,,,,,,,,,,,,,,,,,,,,,,,,,,,,,,,,,,,,/muse/elements/jaw_clench
2025-02-15 19:19:30.242,,,,,,,,,,,,,,,,,,,,,,,,,,,,,,,,,,,,,,/muse/elements/blink
2025-02-15 19:19:30.602,0,-0.03551506985471411,0.00410415635349418,0,0,0.01663018579417359,0.1431583014110945,0,0,0.1617032729934302,0.4897999978849766,0,0,0.2676253870899398,0.05382623529885947,0,0,-0.05238204241960966,-0.207735537491808,0,1102.014652014652,799.4139194139194,796.996336996337,1620.989010989011,839.3040293040293,0.450134,-0.038757,0.885742,0.710297,-2.332764,0.239258,1,2,1,1,2,50.000000
2025-02-15 19:19:30.929,,,,,,,,,,,,,,,,,,,,,,,,,,,,,,,,,,,,,,/muse/elements/blink
2025-02-15 19:19:31.079,,,,,,,,,,,,,,,,,,,,,,,,,,,,,,,,,,,,,,/muse/elements/jaw_clench
2025-02-15 19:19:31.101,0,0.1202081430745072,0.113636526384487,0,0,0.09589035428694305,0.1387923924273936,0,0,0.07992965615418821,0.5052882771354356,0,0,0.2529195128543877,0.1245526985875144,0,0,-0.06949801938232349,-0.1446569537044672,0,751.4652014652015,803.8461538461539,791.7582417582418,1371.978021978022,490.3663003663004,0.445740,-0.045715,0.893127,0.037384,-2.901001,0.351410,1,2,1,1,2,50.000000
2025-02-15 19:19:31.360,,,,,,,,,,,,,,,,,,,,,,,,,,,,,,,,,,,,,,/muse/elements/jaw_clench
2025-02-15 19:19:31.446,,,,,,,,,,,,,,,,,,,,,,,,,,,,,,,,,,,,,,/muse/elements/blink
2025-02-15 19:19:31.611,0,0.04999874672239579,0.2490758348716937,0,0,0.01779345226485931,0.2267922373901338,0,0,0.1165303350315329,0.3962886121526687,0,0,0.2254077946952533,0.2523044639042917,0,0,-0.213111871397588,-0.05772904562468469,0,813.919413919414,802.6373626373627,801.4285714285714,1460.622710622711,904.5787545787546,0.441772,-0.042114,0.888855,1.413116,-2.377625,-0.725250,1,2,1,1,2,50.000000
2025-02-15 19:19:31.682,,,,,,,,,,,,,,,,,,,,,,,,,,,,,,,,,,,,,,/muse/elements/jaw_clench
2025-02-15 19:19:31.896,,,,,,,,,,,,,,,,,,,,,,,,,,,,,,,,,,,,,,/muse/elements/jaw_clench
2025-02-15 19:19:32.069,,,,,,,,,,,,,,,,,,,,,,,,,,,,,,,,,,,,,,/muse/elements/jaw_clench
2025-02-15 19:19:32.102,0,0.04728327971145732,0.4195473668236345,0,0,-0.01017092541757597,0.2445902017294811,0,0,0.1027607902634667,0.506061300194048,0,0,0.2838864618897429,0.3338749434255118,0,0,-0.182104367642966,-0.01385274279862989,0,1218.461538461539,803.4432234432235,805.0549450549451,1613.736263736264,828.4249084249085,0.431885,-0.041443,0.898376,-0.538330,-0.471039,-0.732727,1,2,1,1,2,50.000000
2025-02-15 19:19:32.477,,,,,,,,,,,,,,,,,,,,,,,,,,,,,,,,,,,,,,/muse/elements/jaw_clench
2025-02-15 19:19:32.602,0,-0.2184575763190524,0.3975117260713737,0,0,-0.02826072462986303,0.2315262414877177,0,0,0.06483405681795923,0.4889165104209263,0,0,0.3038937545887714,0.2883614696382598,0,0,-0.217860415831102,-0.007059428084858978,0,755.4945054945055,800.2197802197802,814.7252747252747,1620.989010989011,885.2380952380953,0.414001,-0.047913,0.914124,-0.747681,1.801910,-2.841187,1,2,1,1,2,50.000000
2025-02-15 19:19:32.760,,,,,,,,,,,,,,,,,,,,,,,,,,,,,,,,,,,,,,/muse/elements/blink
2025-02-15 19:19:33.102,0,-0.3237261293747307,0.4255176000820711,0,0,-0.01542352154508801,0.2487911099156363,0,0,0.0422725660769936,0.6198241496909539,0,0,0.2663859904064017,0.329603506604396,0,0,-0.2153730228619358,-0.04653180967782344,0,1335.311355311355,802.6373626373627,803.4432234432235,1620.989010989011,634.2124542124542,0.406006,-0.046997,0.908875,2.228088,-1.951447,-0.314026,1,2,1,1,4,50.000000
2025-02-15 19:19:33.295,,,,,,,,,,,,,,,,,,,,,,,,,,,,,,,,,,,,,,/muse/elements/blink
2025-02-15 19:19:33.611,0,0.2797690240736856,0.7820009805021434,0,0,0.100541215171405,0.7467306969884013,0,0,0.1722694156776207,0.9579480429209598,0,0,0.2276122288687107,0.4635752125558328,0,0,-0.2911013728598231,-0.1531700532221093,0,1196.300366300366,797.8021978021978,820.3663003663004,1649.59706959707,910.6227106227107,0.399475,-0.030701,0.901184,1.196289,-0.381317,-0.613098,1,2,1,1,4,50.000000
2025-02-15 19:19:33.788,,,,,,,,,,,,,,,,,,,,,,,,,,,,,,,,,,,,,,/muse/elements/blink
2025-02-15 19:19:34.103,0,0.5206605335155302,0.8756444458753251,0,0,0.05842183740377038,0.865248954814109,0,0,0.2315410357280825,0.9656600980281708,0,0,0.1217419297013722,0.4734558308993197,0,0,-0.3688966472016339,-0.1989451391942088,0,1346.190476190476,797.8021978021978,805.4578754578755,692.6373626373627,1267.216117216117,0.382446,-0.043091,0.908203,2.856140,-1.570129,6.512299,1,2,1,1,4,50.000000
2025-02-15 19:19:34.109,,,,,,,,,,,,,,,,,,,,,,,,,,,,,,,,,,,,,,/muse/elements/blink
2025-02-15 19:19:34.324,,,,,,,,,,,,,,,,,,,,,,,,,,,,,,,,,,,,,,/muse/elements/blink
2025-02-15 19:19:34.602,0,0.5583660333695573,0.8787974695618462,0,0,0.01405937398681737,0.8568487028056883,0,0,0.1801902879814918,0.9896778712913417,0,0,0.1303976835369147,0.4809427712659617,0,0,-0.3048314846265773,-0.2019415213848273,0,880,799.8168498168499,821.5750915750916,1411.465201465202,279.6336996336996,0.377808,-0.004211,0.950073,4.433746,-5.869293,-0.934601,1,4,1,1,4,50.000000
2025-02-15 19:19:34.733,,,,,,,,,,,,,,,,,,,,,,,,,,,,,,,,,,,,,,/muse/elements/blink
2025-02-15 19:19:35.013,,,,,,,,,,,,,,,,,,,,,,,,,,,,,,,,,,,,,,/muse/elements/jaw_clench
2025-02-15 19:19:35.115,0,0.5490727513651026,0.6233448286030444,0,0,-0.06695457768350116,0.5454983117835289,0,0,0.4314633115275138,0.7112555311958298,0,0,0.196446172886431,0.3846578930847658,0,0,-0.1767245790875091,-0.1446287295265665,0,1023.040293040293,805.8608058608058,792.967032967033,1618.571428571429,680.5494505494506,0.388916,0.006958,0.918152,1.099091,-4.067383,-0.157013,1,4,1,1,4,50.000000
2025-02-15 19:19:35.356,,,,,,,,,,,,,,,,,,,,,,,,,,,,,,,,,,,,,,/muse/elements/blink
2025-02-15 19:19:35.527,,,,,,,,,,,,,,,,,,,,,,,,,,,,,,,,,,,,,,/muse/elements/blink
2025-02-15 19:19:35.527,,,,,,,,,,,,,,,,,,,,,,,,,,,,,,,,,,,,,,/muse/elements/jaw_clench
2025-02-15 19:19:35.607,0,0.4604036222471061,0.7011202799351105,0,0,-0.05957379529683846,0.3141500198091045,0,0,0.4324794935010767,0.5469966753700514,0,0,0.2413607078456146,0.4663860354038599,0,0,-0.02609689494664129,0.02580830269228605,0,1216.043956043956,803.4432234432235,813.1135531135532,1336.923076923077,1114.908424908425,0.390686,0.009277,0.927734,-1.054230,-3.020630,-0.059814,1,4,1,1,4,50.000000
2025-02-15 19:19:36.041,,,,,,,,,,,,,,,,,,,,,,,,,,,,,,,,,,,,,,/muse/elements/blink
2025-02-15 19:19:36.041,,,,,,,,,,,,,,,,,,,,,,,,,,,,,,,,,,,,,,/muse/elements/jaw_clench
2025-02-15 19:19:36.102,0,0.4809701102369872,0.6478059903109705,0,0,0.02280557210326074,0.3975761284565996,0,0,0.4677327771995341,0.6013290608900822,0,0,0.2066530230819385,0.4110220347076832,0,0,0.00172478690199007,0.0464518689068052,0,1121.355311355311,798.2051282051282,792.967032967033,1620.989010989011,865.0915750915751,0.386658,0.009155,0.914307,0.134583,-2.063599,-0.859833,1,2,1,1,4,50.000000
2025-02-15 19:19:36.236,,,,,,,,,,,,,,,,,,,,,,,,,,,,,,,,,,,,,,/muse/elements/jaw_clench
2025-02-15 19:19:36.407,,,,,,,,,,,,,,,,,,,,,,,,,,,,,,,,,,,,,,/muse/elements/blink
2025-02-15 19:19:36.601,0,0.1368404188197279,0.4644022022500017,0,0,0.02356456310841266,0.3901596934553457,0,0,0.3217754727160854,0.4573738862796816,0,0,0.1004702337891043,0.2835647848363816,0,0,-0.04081483416072395,-0.01313561952975983,0,1150.769230769231,811.5018315018315,808.6813186813187,1248.278388278388,936.4102564102565,0.397583,0.006714,0.915955,0.119629,-2.018738,-0.493469,1,2,1,1,4,50.000000
2025-02-15 19:19:37.031,,,,,,,,,,,,,,,,,,,,,,,,,,,,,,,,,,,,,,/muse/elements/jaw_clench
2025-02-15 19:19:37.102,0,0.2054784337514405,0.5249143876787175,0,0,0.01468531730176051,0.5092172571017864,0,0,0.355363870352306,0.5171531694829993,0,0,0.1228736617447106,0.2374848835302428,0,0,-0.03326853051782212,-0.1566584885376754,0,1189.85347985348,794.1758241758242,811.5018315018315,1331.684981684982,1098.388278388278,0.391357,0.005615,0.924377,0.179443,-1.831818,0.770111,1,2,1,1,4,50.000000
2025-02-15 19:19:37.265,,,,,,,,,,,,,,,,,,,,,,,,,,,,,,,,,,,,,,/muse/elements/blink
2025-02-15 19:19:37.456,,,,,,,,,,,,,,,,,,,,,,,,,,,,,,,,,,,,,,/muse/elements/blink
2025-02-15 19:19:37.456,,,,,,,,,,,,,,,,,,,,,,,,,,,,,,,,,,,,,,/muse/elements/jaw_clench
2025-02-15 19:19:37.602,0,0.4984300727647459,0.7660913237444203,0,0,0.1879999145468277,0.5737474096590071,0,0,0.3802991667791108,0.4984563492929199,0,0,0.1833991613026213,0.199694585065656,0,0,-0.03377037271757977,-0.1946121662377174,0,1118.534798534798,807.4725274725275,803.4432234432235,1444.505494505495,549.1941391941392,0.388977,-0.011047,0.921631,0.650482,-1.921539,-1.031799,1,2,1,1,4,50.000000
2025-02-15 19:19:37.864,,,,,,,,,,,,,,,,,,,,,,,,,,,,,,,,,,,,,,/muse/elements/blink
2025-02-15 19:19:38.103,0,0.6513625052399954,0.937147363162079,0,0,0.2686141232205791,0.6595709588125584,0,0,0.3802991667791108,0.4909091057327851,0,0,0.2499100754075748,0.2189724443016889,0,0,0.03820662337317006,-0.2074409995751938,0,1093.553113553114,807.0695970695971,803.4432234432235,1323.626373626374,521.3919413919414,0.384338,0.006470,0.919006,0.971985,-2.826233,-0.127106,1,2,1,1,4,50.000000
2025-02-15 19:19:38.146,,,,,,,,,,,,,,,,,,,,,,,,,,,,,,,,,,,,,,/muse/elements/blink
2025-02-15 19:19:38.610,0,0.5915878540645411,0.874726675718359,0,0,0.2411267291065163,0.4744146554643712,0,0,0.3748641450444924,0.4455436142600969,0,0,0.2146782838197361,0.203799358637148,0,0,-0.1596244459823362,-0.1532564262095232,0,1267.216117216117,804.2490842490843,796.5934065934066,1650,908.2051282051282,0.388123,-0.001465,0.914917,0.837402,-2.071075,-0.500946,1,2,1,1,4,50.000000
2025-02-15 19:19:38.680,,,,,,,,,,,,,,,,,,,,,,,,,,,,,,,,,,,,,,/muse/elements/blink
2025-02-15 19:19:38.767,,,,,,,,,,,,,,,,,,,,,,,,,,,,,,,,,,,,,,/muse/elements/jaw_clench
2025-02-15 19:19:39.004,,,,,,,,,,,,,,,,,,,,,,,,,,,,,,,,,,,,,,/muse/elements/blink
2025-02-15 19:19:39.107,0,-0.1509487646619966,0.4274753012836759,0,0,-0.1435970652072372,0.1673655439241482,0,0,0.28757421908866,0.2742030266102707,0,0,0.1639211084372113,0.245265647214271,0,0,-0.2776850025375409,-0.1781180604386846,0,1160.03663003663,794.1758241758242,804.6520146520147,1358.278388278388,1083.076923076923,0.393616,0.010620,0.921448,0.957031,-2.250519,-0.583191,1,2,1,1,2,50.000000
2025-02-15 19:19:39.602,0,-0.1868568562017748,0.48472533061318,0,0,-0.09672541566245722,0.1887563939886288,0,0,0.3257291378459697,0.479595072547233,0,0,0.151673160595183,0.2181666844319608,0,0,-0.09497391519363958,-0.1810040035737999,0,748.6446886446887,787.7289377289378,792.5641025641025,188.1684981684982,491.5750915750916,0.373962,0.006165,0.917969,3.334656,0.620575,-0.605621,1,2,1,1,2,50.000000
2025-02-15 19:19:39.779,,,,,,,,,,,,,,,,,,,,,,,,,,,,,,,,,,,,,,/muse/elements/blink
2025-02-15 19:19:39.779,,,,,,,,,,,,,,,,,,,,,,,,,,,,,,,,,,,,,,/muse/elements/jaw_clench
2025-02-15 19:19:39.978,,,,,,,,,,,,,,,,,,,,,,,,,,,,,,,,,,,,,,/muse/elements/jaw_clench
2025-02-15 19:19:40.102,0,0.6601048483202343,0.5649992668648564,0,0,0.1357347739583582,0.2332057668490734,0,0,0.5231185954795532,0.4945354524035501,0,0,0.1652892936188218,0.1862140549615008,0,0,-0.008553839739375646,-0.1095922070476012,0,816.7399267399268,811.0989010989011,805.8608058608058,1620.989010989011,778.0586080586081,0.411072,0.062378,0.913940,1.143951,-2.901001,0.082245,1,2,1,1,4,50.000000
2025-02-15 19:19:40.502,,,,,,,,,,,,,,,,,,,,,,,,,,,,,,,,,,,,,,/muse/elements/blink
2025-02-15 19:19:40.589,,,,,,,,,,,,,,,,,,,,,,,,,,,,,,,,,,,,,,/muse/elements/jaw_clench
2025-02-15 19:19:40.605,0,0.773119574057532,0.6218757341125825,0,0,0.2544748818786057,0.3329114403927608,0,0,0.5110280415505564,0.4986130020328544,0,0,0.2126098292030043,0.2281950438158281,0,0,0.005906570053899544,0.01257352636855784,0,0,805.0549450549451,805.8608058608058,1620.989010989011,637.4358974358975,0.401978,0.040527,0.905579,-6.572113,0.284119,5.001984,1,4,1,1,4,50.000000
2025-02-15 19:19:40.824,,,,,,,,,,,,,,,,,,,,,,,,,,,,,,,,,,,,,,/muse/elements/blink
2025-02-15 19:19:41.102,0,0.7861378158877134,0.57819431544643,0,0,0.304515089115783,0.3087367935392573,0,0,0.5090640974441794,0.4353383900285869,0,0,0.2469169025903807,0.2324473665598364,0,0,-0.1165280785087125,0.007102946430502702,0,1635.091575091575,814.3223443223443,810.6959706959707,0,1457.399267399268,0.370300,-0.077087,0.921326,5.293579,-5.929108,10.213318,1,4,1,1,4,50.000000
2025-02-15 19:19:41.103,,,,,,,,,,,,,,,,,,,,,,,,,,,,,,,,,,,,,,/muse/elements/jaw_clench
2025-02-15 19:19:41.296,,,,,,,,,,,,,,,,,,,,,,,,,,,,,,,,,,,,,,/muse/elements/jaw_clench
2025-02-15 19:19:41.533,,,,,,,,,,,,,,,,,,,,,,,,,,,,,,,,,,,,,,/muse/elements/blink
2025-02-15 19:19:41.533,,,,,,,,,,,,,,,,,,,,,,,,,,,,,,,,,,,,,,/muse/elements/jaw_clench
2025-02-15 19:19:41.601,0,0.5657820629374295,0.6068391273648581,0,0,0.3174692244645745,0.339321456751801,0,0,0.5005799324069039,0.64497347092961,0,0,0.2339656456581401,0.3001687559923142,0,0,-0.2362895615025764,0.1835664185785631,0,1169.70695970696,802.2344322344322,807.8754578754579,1620.989010989011,940.0366300366301,0.436218,0.025940,0.907166,3.626251,-4.418793,-2.317810,1,4,1,1,4,50.000000
2025-02-15 19:19:42.105,0,0.3219325134492029,0.5828099065845573,0,0,0.1740045933199256,0.2282982706117358,0,0,0.4091422083084551,0.6321121823513176,0,0,0.2339841937232081,0.3111713896747398,0,0,-0.2228300679831854,0.2732071102529711,0,0,813.5164835164835,821.5750915750916,1621.391941391941,590.2930402930403,0.428833,0.023926,0.904419,2.078552,-3.865509,-2.489777,1,4,1,1,2,50.000000
2025-02-15 19:19:42.410,,,,,,,,,,,,,,,,,,,,,,,,,,,,,,,,,,,,,,/muse/elements/blink
2025-02-15 19:19:42.602,0,0.3976974882995699,0.5629371319333464,0,0,0.1215189107220428,0.2277662400118562,0,0,0.3096534038474761,0.6814342125082756,0,0,0.268779805334303,0.3539647989124635,0,0,-0.1617025559331055,0.3266049236906733,0,1550.476190476191,799.8168498168499,797.3992673992674,1615.347985347985,1263.186813186813,0.454224,0.060608,0.890930,-0.605621,-1.712189,-0.418701,1,4,1,1,4,50.000000
2025-02-15 19:19:42.847,,,,,,,,,,,,,,,,,,,,,,,,,,,,,,,,,,,,,,/muse/elements/jaw_clench
2025-02-15 19:19:42.948,,,,,,,,,,,,,,,,,,,,,,,,,,,,,,,,,,,,,,/muse/elements/blink
2025-02-15 19:19:43.109,0,0.600612593056159,0.5002714522560597,0,0,-0.08345314357519767,0.1899751086320865,0,0,0.3227230726633206,0.6675453723362471,0,0,0.3373178523971658,0.3679744692208389,0,0,-0.1502091701959899,0.193888876347314,0,1041.172161172161,800.2197802197802,801.4285714285714,1650,738.974358974359,0.430481,0.016357,0.898193,-1.016846,-1.271057,-0.560760,1,2,1,1,4,50.000000
2025-02-15 19:19:43.110,,,,,,,,,,,,,,,,,,,,,,,,,,,,,,,,,,,,,,/muse/elements/blink
2025-02-15 19:19:43.110,,,,,,,,,,,,,,,,,,,,,,,,,,,,,,,,,,,,,,/muse/elements/jaw_clench
2025-02-15 19:19:43.365,,,,,,,,,,,,,,,,,,,,,,,,,,,,,,,,,,,,,,/muse/elements/jaw_clench
2025-02-15 19:19:43.601,0,0.5025193008106873,0.3239259916774364,0,0,-0.1846978038693603,0.08866340948942335,0,0,0.331590604518785,0.5951856271545292,0,0,0.2961875600062943,0.3008987522622636,0,0,-0.1934912050052656,-0.03234065026112591,0,867.9120879120879,809.8901098901099,801.8315018315019,1650,811.5018315018315,0.421143,0.013245,0.909363,0.710297,-1.697235,-0.500946,1,2,1,1,4,50.000000
2025-02-15 19:19:43.649,,,,,,,,,,,,,,,,,,,,,,,,,,,,,,,,,,,,,,/muse/elements/blink
2025-02-15 19:19:43.965,,,,,,,,,,,,,,,,,,,,,,,,,,,,,,,,,,,,,,/muse/elements/blink
2025-02-15 19:19:44.101,0,0.4434666443578867,0.2187221841435047,0,0,-0.241406727583919,-0.01415334193149331,0,0,0.3678491128459143,0.5217655462610381,0,0,0.2570220427673183,0.2817556482594213,0,0,-0.2422633489008351,-0.1830584315013129,0,895.3113553113553,798.6080586080586,796.996336996337,1650,862.6739926739926,0.418579,0.013733,0.903442,0.471039,-1.891632,-0.560760,1,2,1,1,2,50.000000
2025-02-15 19:19:44.610,0,0.07081271641190237,-0.1483158987765683,0,0,-0.178944005150758,-0.2832361506027171,0,0,0.3777967496246249,0.1902065472523073,0,0,0.1423048416512002,0.1705521528305081,0,0,-0.2676635132100806,-0.1962302538176771,0,1445.714285714286,792.1611721611722,813.1135531135532,1650,874.3589743589744,0.422241,0.004150,0.903198,0.882263,-2.175751,-0.373840,1,2,1,1,2,50.000000
2025-02-15 19:19:45.112,0,0.326541635260533,-0.3368970834133362,0,0,-0.08030572538333861,-0.3641754021464669,0,0,0.3652952559383589,0.1701426612223627,0,0,0.1345177829073142,0.1672173345477621,0,0,-0.2767805511464408,-0.2379002006763568,0,1347.399267399268,771.6117216117216,803.8461538461539,1650,877.5824175824176,0.421326,0.015930,0.904724,0.485992,-1.749573,-0.291595,1,2,1,1,4,50.000000
2025-02-15 19:19:45.601,0,0.4401706405003591,0.01009957646593189,0,0,-0.1054744735150853,-0.1724614631789973,0,0,0.1631814274146861,0.1620724465564263,0,0,0.05064161496640317,0.1269117711433846,0,0,-0.3072142099258712,-0.1741785365826806,0,995.2380952380953,788.1318681318681,804.6520146520147,1377.216117216117,992.4175824175825,0.416992,0.022400,0.904541,-0.112152,-1.570129,-0.426178,1,2,1,1,2,50.000000
2025-02-15 19:19:46.107,0,0.5863047577588675,0.04964899902219948,0,0,-0.1779462478106374,-0.1334238558124167,0,0,-0.3886521627279789,0.2049564238109085,0,0,0.07873419779255701,0.1678568304346839,0,0,-0.2790625834166568,-0.09001086011349278,0,1241.831501831502,806.6666666666667,810.6959706959707,1413.479853479854,838.0952380952381,0.417053,0.011230,0.906372,0.396271,-1.719666,-0.328979,1,2,1,1,2,50.000000
2025-02-15 19:19:46.305,,,,,,,,,,,,,,,,,,,,,,,,,,,,,,,,,,,,,,/muse/elements/jaw_clench
2025-02-15 19:19:46.499,,,,,,,,,,,,,,,,,,,,,,,,,,,,,,,,,,,,,,/muse/elements/jaw_clench
2025-02-15 19:19:46.601,0,0.5863047577588675,0.1698653106540679,0,0,-0.1779462478106374,0.04915450782347639,0,0,-0.3886521627279789,0.2390855120981673,0,0,0.07873419779255701,0.1990510548424038,0,0,-0.2790625834166568,-0.03288626746432669,0,826.4102564102565,808.2783882783883,798.6080586080586,1057.692307692308,1013.369963369963,0.422913,0.013367,0.906982,-0.014954,-1.562653,-0.254211,1,2,1,1,2,50.000000
2025-02-15 19:19:47.116,0,0.7411220922854922,0.03822111162433363,0,0,0.5847842230416412,-0.001999908447021072,0,0,0.6748814013950476,0.3417006831277353,0,0,0.4637532638997238,0.1764698322894062,0,0,0.08327462548471426,-0.06071375645771421,0,1256.336996336996,799.0109890109891,800.6227106227107,1650,848.974358974359,0.418640,0.007385,0.898621,0.471039,-1.697235,-0.500946,1,2,1,1,2,50.000000
2025-02-15 19:19:47.608,0,0.8667284361837477,0.0855445395705537,0,0,0.620732761888835,0.1227709351791398,0,0,0.9578133561405773,0.3417006831277353,0,0,0.4304371172145974,0.2004265690061194,0,0,0.0259648761235927,-0.09012864641950984,0,1101.611721611722,823.5897435897436,812.3076923076924,1429.59706959707,792.1611721611722,0.418640,0.007874,0.909912,-0.157013,-1.428070,-0.590668,1,2,1,1,2,50.000000
2025-02-15 19:19:47.913,,,,,,,,,,,,,,,,,,,,,,,,,,,,,,,,,,,,,,/muse/elements/jaw_clench
2025-02-15 19:19:48.101,0,0.9327587907086534,-0.02734691049684202,0,0,0.9307951527901571,0.08725454578312121,0,0,1.207751912715792,0.3118150492848479,0,0,0.4170744573483374,0.1871181920378059,0,0,-0.03176917780697962,-0.1071694981175011,0,942.4542124542124,815.934065934066,802.6373626373627,1584.322344322344,953.3333333333334,0.408264,0.001465,0.915100,0.246735,-1.570129,-0.500946,1,2,1,1,2,50.000000
2025-02-15 19:19:48.149,,,,,,,,,,,,,,,,,,,,,,,,,,,,,,,,,,,,,,/muse/elements/jaw_clench
2025-02-15 19:19:48.235,,,,,,,,,,,,,,,,,,,,,,,,,,,,,,,,,,,,,,/muse/elements/blink
2025-02-15 19:19:48.514,,,,,,,,,,,,,,,,,,,,,,,,,,,,,,,,,,,,,,/muse/elements/blink
2025-02-15 19:19:48.618,0,1.114293590837109,-0.03734330684232746,0,0,1.144244360477099,0.09823964144278247,0,0,1.207751912715792,0.1005555103729805,0,0,0.4032481501999679,0.1610656236895504,0,0,-0.05956560618793449,-0.1044195246916469,0,1119.340659340659,808.2783882783883,805.0549450549451,1650,822.7838827838829,0.402100,0.001648,0.911011,0.732727,-1.757050,-0.284119,1,2,1,1,2,50.000000
2025-02-15 19:19:48.749,,,,,,,,,,,,,,,,,,,,,,,,,,,,,,,,,,,,,,/muse/elements/blink
2025-02-15 19:19:49.112,0,1.077536730276622,-0.005285523112575563,0,0,1.093002839674841,-0.01214097126062714,0,0,1.143142077014534,-0.04834459495006134,0,0,0.2694997215461318,0.0823295287015208,0,0,-0.1186527097725385,-0.1594002955334557,0,1035.531135531136,778.4615384615385,796.1904761904763,1645.567765567766,695.8608058608058,0.409424,0.004272,0.917969,0.366364,-1.966400,-1.099091,1,2,1,1,2,50.000000
2025-02-15 19:19:49.352,,,,,,,,,,,,,,,,,,,,,,,,,,,,,,,,,,,,,,/muse/elements/jaw_clench
2025-02-15 19:19:49.604,0,0.9763221255599072,0.1257692393307396,0,0,0.4000441917293648,0.05228792231869985,0,0,0.301484953588056,0.0562993491767752,0,0,0.09982125664037919,0.1946447678652917,0,0,-0.2249357290175661,-0.1705738981182906,0,1223.296703296703,758.7179487179487,812.3076923076924,1625.824175824176,1126.190476190476,0.407166,-0.003296,0.908203,0.373840,-1.263580,-1.293488,1,2,1,1,2,50.000000
2025-02-15 19:19:49.650,,,,,,,,,,,,,,,,,,,,,,,,,,,,,,,,,,,,,,/muse/elements/blink
2025-02-15 19:19:50.102,0,0.9763221255599072,0.1747743240825791,0,0,0.4000441917293648,0.1156931365469435,0,0,0.301484953588056,0.3173670831989864,0,0,0.09982125664037919,0.2567402015124776,0,0,-0.2249357290175661,-0.1316574382551793,0,987.985347985348,796.5934065934066,799.4139194139194,1008.937728937729,1119.340659340659,0.404297,-0.015137,0.908447,-0.351410,-1.622467,0.157013,1,2,1,1,2,50.000000
2025-02-15 19:19:50.610,0,0.9763221255599072,0.1915112042344914,0,0,0.4000441917293648,0.1705532815955979,0,0,0.301484953588056,0.3586761290041173,0,0,0.09982125664037919,0.3376772748255848,0,0,-0.2249357290175661,-0.04158316656268905,0,655.1648351648352,800.6227106227107,861.4652014652015,763.956043956044,1514.615384615385,0.405029,-0.023743,0.908569,4.598236,-2.130890,-1.585083,1,2,1,1,2,50.000000
2025-02-15 19:19:50.657,,,,,,,,,,,,,,,,,,,,,,,,,,,,,,,,,,,,,,/muse/elements/blink
2025-02-15 19:19:50.657,,,,,,,,,,,,,,,,,,,,,,,,,,,,,,,,,,,,,,/muse/elements/jaw_clench
2025-02-15 19:19:51.044,,,,,,,,,,,,,,,,,,,,,,,,,,,,,,,,,,,,,,/muse/elements/blink
2025-02-15 19:19:51.102,0,0.9763221255599072,0.1520778252881093,0,0,0.4000441917293648,0.1149783034076024,0,0,0.301484953588056,0.3494383275777717,0,0,0.09982125664037919,0.3179516299224222,0,0,-0.2249357290175661,-0.01705222083057289,0,1244.652014652015,819.5604395604396,769.1941391941392,1620.989010989011,1045.201465201465,0.410217,0.035095,0.914062,3.858032,-2.332764,1.323395,1,4,1,1,2,50.000000
2025-02-15 19:19:51.363,,,,,,,,,,,,,,,,,,,,,,,,,,,,,,,,,,,,,,/muse/elements/blink
2025-02-15 19:19:51.363,,,,,,,,,,,,,,,,,,,,,,,,,,,,,,,,,,,,,,/muse/elements/jaw_clench
2025-02-15 19:19:51.614,0,0.9763221255599072,0.139882468058628,0,0,0.4000441917293648,0.01274992012548034,0,0,0.301484953588056,0.3068732921948628,0,0,0.09982125664037919,0.3050456556304635,0,0,-0.2249357290175661,-0.03704694526037206,0,1387.692307692308,816.3369963369963,804.2490842490843,1650,1005.311355311355,0.416077,0.037659,0.905579,-0.538330,-1.181335,0.067291,1,2,1,1,4,50.000000
2025-02-15 19:19:51.663,,,,,,,,,,,,,,,,,,,,,,,,,,,,,,,,,,,,,,/muse/elements/blink
2025-02-15 19:19:51.663,,,,,,,,,,,,,,,,,,,,,,,,,,,,,,,,,,,,,,/muse/elements/jaw_clench
2025-02-15 19:19:51.877,,,,,,,,,,,,,,,,,,,,,,,,,,,,,,,,,,,,,,/muse/elements/blink
2025-02-15 19:19:52.090,,,,,,,,,,,,,,,,,,,,,,,,,,,,,,,,,,,,,,/muse/elements/jaw_clench
2025-02-15 19:19:52.107,0,0.9763221255599072,0.1688836875751198,0,0,0.4000441917293648,-0.02453234052494272,0,0,0.301484953588056,0.2052965251833938,0,0,0.09982125664037919,0.3444197509576198,0,0,-0.2249357290175661,-0.03573971056480958,0,1017.802197802198,752.6739926739926,797.3992673992674,1650,785.7142857142858,0.418457,0.039795,0.903809,1.181335,-2.250519,-0.037384,1,2,1,1,2,50.000000
2025-02-15 19:19:52.601,0,0.9763221255599072,0.8549556878819105,0,0,0.4000441917293648,0.1552637682525814,0,0,0.301484953588056,0.5306723056813974,0,0,0.09982125664037919,0.3357483313270633,0,0,-0.2249357290175661,-0.2287821025349075,0,1179.78021978022,806.6666666666667,804.6520146520147,1650,1145.128205128205,0.411194,0.035461,0.908447,-0.097198,-1.831818,0.171967,1,2,1,1,4,50.000000
2025-02-15 19:19:53.101,0,0.9763221255599072,0.7584942614388951,0,0,0.4000441917293648,0.2495714461998186,0,0,0.301484953588056,0.5451976850103405,0,0,0.09982125664037919,0.3933431345371066,0,0,-0.2249357290175661,-0.1682952850010409,0,832.4542124542124,805.4578754578755,784.9084249084249,1034.725274725275,920.6959706959707,0.411865,0.040833,0.911072,1.420593,-2.534637,-0.418701,1,2,1,1,4,50.000000
2025-02-15 19:19:53.397,,,,,,,,,,,,,,,,,,,,,,,,,,,,,,,,,,,,,,/muse/elements/blink
2025-02-15 19:19:53.397,,,,,,,,,,,,,,,,,,,,,,,,,,,,,,,,,,,,,,/muse/elements/jaw_clench
2025-02-15 19:19:53.607,0,0.9763221255599072,0.6713896338409059,0,0,0.4000441917293648,0.2659648437349154,0,0,0.301484953588056,0.4780394612789411,0,0,0.09982125664037919,0.359125056619179,0,0,-0.2249357290175661,-0.156163105752582,0,983.956043956044,755.8974358974359,785.7142857142858,1608.498168498169,921.5018315018315,0.414001,0.036072,0.911682,-0.254211,-0.957031,-1.532745,1,2,1,1,2,50.000000
2025-02-15 19:19:53.613,,,,,,,,,,,,,,,,,,,,,,,,,,,,,,,,,,,,,,/muse/elements/jaw_clench
2025-02-15 19:19:53.699,,,,,,,,,,,,,,,,,,,,,,,,,,,,,,,,,,,,,,/muse/elements/blink
2025-02-15 19:19:54.084,,,,,,,,,,,,,,,,,,,,,,,,,,,,,,,,,,,,,,/muse/elements/blink
2025-02-15 19:19:54.101,0,0.7251538172806906,0.5795325530709399,0,0,0.6650223016743608,0.4416242952596474,0,0,0.4889230916467253,0.5498465587345733,0,0,0.5696823678248466,0.4465614577047597,0,0,0.08978416323870568,0.1230250831528652,0,998.8644688644689,848.974358974359,803.4432234432235,1054.871794871795,1185.421245421245,0.418274,0.034546,0.904663,0.373840,-2.325287,0.164490,1,2,1,1,4,50.000000
2025-02-15 19:19:54.234,,,,,,,,,,,,,,,,,,,,,,,,,,,,,,,,,,,,,,/muse/elements/jaw_clench
2025-02-15 19:19:54.320,,,,,,,,,,,,,,,,,,,,,,,,,,,,,,,,,,,,,,/muse/elements/blink
2025-02-15 19:19:54.601,,,,,,,,,,,,,,,,,,,,,,,,,,,,,,,,,,,,,,/muse/elements/jaw_clench
2025-02-15 19:19:54.618,0,0.7251538172806906,0.6290638375938483,0,0,0.6650223016743608,0.5135485845245944,0,0,0.4889230916467253,0.6127964281969704,0,0,0.5696823678248466,0.3638657180096624,0,0,0.08978416323870568,0.1695751103779019,0,1242.637362637363,825.6043956043957,806.2637362637363,0,1028.278388278388,0.405640,0.022766,0.913574,-1.876678,-1.286011,-0.545807,1,2,1,1,2,50.000000
2025-02-15 19:19:55.111,0,0.7251538172806906,0.6608946587843205,0,0,0.6650223016743608,0.523538260527066,0,0,0.4889230916467253,0.612905009123266,0,0,0.5696823678248466,0.3280733104362986,0,0,0.08978416323870568,0.2189596490936764,0,857.032967032967,814.7252747252747,790.5494505494506,967.8388278388279,870.3296703296703,0.406860,0.007629,0.916382,0.209351,-1.413116,-0.149536,1,2,1,1,2,50.000000
2025-02-15 19:19:55.117,,,,,,,,,,,,,,,,,,,,,,,,,,,,,,,,,,,,,,/muse/elements/blink
2025-02-15 19:19:55.202,,,,,,,,,,,,,,,,,,,,,,,,,,,,,,,,,,,,,,/muse/elements/jaw_clench
2025-02-15 19:19:55.603,0,0.7251538172806906,0.5778359142961892,0,0,0.6650223016743608,0.4470084057173899,0,0,0.4889230916467253,0.5864462319969235,0,0,0.5696823678248466,0.2425362413507645,0,0,0.08978416323870568,0.1710157663656901,0,1065.750915750916,812.7106227106227,800.6227106227107,1630.25641025641,689.0109890109891,0.397217,0.012695,0.919739,0.321503,-1.981354,0.014954,1,2,1,1,4,50.000000
2025-02-15 19:19:56.103,0,0.7251538172806906,0.4093451440956588,0,0,0.6650223016743608,0.1244133788494306,0,0,0.4889230916467253,0.1787556862570619,0,0,0.5696823678248466,0.2791688822945922,0,0,0.08978416323870568,0.2139983071680382,0,1121.758241758242,747.4358974358975,803.040293040293,1650,808.2783882783883,0.393005,0.016113,0.916748,0.770111,-1.704712,-1.136475,1,2,1,1,2,50.000000
2025-02-15 19:19:56.609,0,0.7251538172806906,0.2242007563349519,0,0,0.6650223016743608,-0.05555543364837762,0,0,0.4889230916467253,0.1783438048943709,0,0,0.5696823678248466,0.3094461912113826,0,0,0.08978416323870568,0.1839342594851869,0,741.7948717948718,430.7326007326008,784.5054945054945,0,487.5457875457876,0.383179,0.001587,0.921814,1.061707,-2.975769,-0.067291,1,2,1,1,4,50.000000
2025-02-15 19:19:56.658,,,,,,,,,,,,,,,,,,,,,,,,,,,,,,,,,,,,,,/muse/elements/jaw_clench
2025-02-15 19:19:57.103,0,0.7251538172806906,0.1956194049293938,0,0,0.6650223016743608,-0.06902753922763635,0,0,0.4889230916467253,0.266934999897151,0,0,0.5696823678248466,0.2666147820150365,0,0,0.08978416323870568,0.1451806443703283,0,767.1794871794872,591.5018315018315,800.2197802197802,240.5494505494506,937.6190476190476,0.385986,0.005615,0.918335,2.377625,-2.878571,0.874786,1,2,1,1,2,50.000000
2025-02-15 19:19:57.287,,,,,,,,,,,,,,,,,,,,,,,,,,,,,,,,,,,,,,/muse/elements/blink
2025-02-15 19:19:57.287,,,,,,,,,,,,,,,,,,,,,,,,,,,,,,,,,,,,,,/muse/elements/jaw_clench
2025-02-15 19:19:57.601,0,0.7251538172806906,0.1843678158573625,0,0,0.6650223016743608,0.08480998900637252,0,0,0.4889230916467253,0.301878068447425,0,0,0.5696823678248466,0.3888481143361018,0,0,0.08978416323870568,0.04631451023311248,0,560.0732600732601,1466.263736263736,808.6813186813187,248.2051282051282,1017.802197802198,0.388489,0.006165,0.918152,0.500946,-2.086029,-0.560760,1,2,4,1,2,50.000000
2025-02-15 19:19:57.653,,,,,,,,,,,,,,,,,,,,,,,,,,,,,,,,,,,,,,/muse/elements/blink
2025-02-15 19:19:58.101,0,0.7251538172806906,0.3554633547847494,0,0,0.6650223016743608,0.1225191535693238,0,0,0.4889230916467253,0.2727926364793018,0,0,0.5696823678248466,0.4187760665379381,0,0,0.08978416323870568,0.001956357323541169,0,755.4945054945055,845.7509157509157,801.8315018315019,0,860.6593406593407,0.388000,0.001648,0.915710,0.530853,-2.130890,-0.321503,1,2,2,1,2,50.000000
2025-02-15 19:19:58.170,,,,,,,,,,,,,,,,,,,,,,,,,,,,,,,,,,,,,,/muse/elements/blink
2025-02-15 19:19:58.366,,,,,,,,,,,,,,,,,,,,,,,,,,,,,,,,,,,,,,/muse/elements/jaw_clench
2025-02-15 19:19:58.496,,,,,,,,,,,,,,,,,,,,,,,,,,,,,,,,,,,,,,/muse/elements/blink
2025-02-15 19:19:58.601,0,0.7251538172806906,0.2813814057972434,0,0,0.6650223016743608,0.05614103014619908,0,0,0.4889230916467253,0.04858000597269057,0,0,0.5696823678248466,0.3915053619935455,0,0,0.08978416323870568,-0.1087147867993352,0,657.5824175824176,831.6483516483516,801.025641025641,0,424.6886446886447,0.379822,0.005188,0.919739,0.986938,-1.570129,0.179443,1,2,1,1,2,50.000000
2025-02-15 19:19:59.098,,,,,,,,,,,,,,,,,,,,,,,,,,,,,,,,,,,,,,/muse/elements/jaw_clench
2025-02-15 19:19:59.112,0,0.7251538172806906,0.2255079406198793,0,0,0.6650223016743608,0.01024591205687673,0,0,0.4889230916467253,0.3952506289479487,0,0,0.5696823678248466,0.2850198946262954,0,0,0.08978416323870568,-0.1496929638339738,0,1075.421245421245,811.9047619047619,813.1135531135532,1650,723.2600732600732,0.392456,0.010498,0.919983,0.807495,-2.871094,-0.493469,1,2,1,1,2,50.000000
2025-02-15 19:19:59.205,,,,,,,,,,,,,,,,,,,,,,,,,,,,,,,,,,,,,,/muse/elements/blink
2025-02-15 19:19:59.485,,,,,,,,,,,,,,,,,,,,,,,,,,,,,,,,,,,,,,/muse/elements/blink
2025-02-15 19:19:59.607,0,0.7251538172806906,0.1723666874668098,0,0,0.6650223016743608,0.03965488043735643,0,0,0.4889230916467253,0.5440781387359782,0,0,0.5696823678248466,0.2800147171127453,0,0,0.08978416323870568,-0.1405526472301133,0,682.5641025641025,770.8058608058608,805.4578754578755,1560.14652014652,792.967032967033,0.389587,0.005005,0.919189,0.448608,-2.766418,-0.157013,1,2,1,1,2,50.000000
2025-02-15 19:20:00.088,,,,,,,,,,,,,,,,,,,,,,,,,,,,,,,,,,,,,,/muse/elements/blink
2025-02-15 19:20:00.101,0,0.7251538172806906,0.2240175067450244,0,0,0.6650223016743608,0.04392050508574556,0,0,0.4889230916467253,0.5444557776394408,0,0,0.5696823678248466,0.3525287025938845,0,0,0.08978416323870568,-0.07523143623553315,0,799.4139194139194,804.6520146520147,795.3846153846154,269.96336996337,764.7619047619048,0.391418,-0.003418,0.916931,0.209351,-2.071075,-0.680389,1,2,1,1,2,50.000000
2025-02-15 19:20:00.196,,,,,,,,,,,,,,,,,,,,,,,,,,,,,,,,,,,,,,/muse/elements/jaw_clench
2025-02-15 19:20:00.325,,,,,,,,,,,,,,,,,,,,,,,,,,,,,,,,,,,,,,/muse/elements/blink
2025-02-15 19:20:00.517,,,,,,,,,,,,,,,,,,,,,,,,,,,,,,,,,,,,,,/muse/elements/blink
2025-02-15 19:20:00.601,0,0.7251538172806906,0.2508069031354926,0,0,0.6650223016743608,0.06509914862694566,0,0,0.4889230916467253,0.5558630013618869,0,0,0.5696823678248466,0.2908514555512011,0,0,0.08978416323870568,-0.0927716355519799,0,495.2014652014652,801.8315018315019,807.0695970695971,796.5934065934066,1137.069597069597,0.392761,0.002563,0.913574,0.545807,-2.250519,-0.104675,1,2,1,1,4,50.000000
2025-02-15 19:20:00.690,,,,,,,,,,,,,,,,,,,,,,,,,,,,,,,,,,,,,,/muse/elements/jaw_clench
2025-02-15 19:20:01.111,0,1.245595031022838,0.1067961526060255,0,0,0.7871941051280067,0.06587040822102001,0,0,0.7348269144743602,0.4115904915587594,0,0,1.00151355651569,0.2620751791279897,0,0,0.1449332067483126,-0.06018457860335889,0,576.1904761904763,818.3516483516484,776.4468864468864,926.7399267399268,806.6666666666667,0.388794,-0.005493,0.914673,0.964508,-2.332764,-0.261688,1,2,1,1,2,50.000000
2025-02-15 19:20:01.605,0,1.118010333275596,0.2830909015620484,0,0,0.7392396301321994,0.2442480368611032,0,0,0.810282725069201,0.2858255967530191,0,0,0.8291038424496793,0.2248182439440427,0,0,0.1498603346958946,0.001033005638443755,0,722.8571428571429,805.0549450549451,822.3809523809524,1447.728937728938,815.1282051282052,0.392212,0.002014,0.922546,0.052338,-1.958923,-0.299072,1,2,1,1,2,50.000000
2025-02-15 19:20:01.635,,,,,,,,,,,,,,,,,,,,,,,,,,,,,,,,,,,,,,/muse/elements/jaw_clench
2025-02-15 19:20:01.828,,,,,,,,,,,,,,,,,,,,,,,,,,,,,,,,,,,,,,/muse/elements/jaw_clench
2025-02-15 19:20:02.101,0,1.041410626835935,0.6868030769853277,0,0,0.6272562587860826,0.5173120287392816,0,0,0.8364732508823447,0.497595575724004,0,0,0.7096076754575076,0.2288573732668352,0,0,0.1846193429383695,0.008374199790312058,0,491.978021978022,795.7875457875458,807.8754578754579,415.8241758241758,761.941391941392,0.389832,-0.003052,0.921021,1.106567,-2.340240,-0.171967,1,2,1,1,4,50.000000
2025-02-15 19:20:02.235,,,,,,,,,,,,,,,,,,,,,,,,,,,,,,,,,,,,,,/muse/elements/jaw_clench
2025-02-15 19:20:02.428,,,,,,,,,,,,,,,,,,,,,,,,,,,,,,,,,,,,,,/muse/elements/jaw_clench
2025-02-15 19:20:02.601,0,0.8820144624924289,0.8351176533922612,0,0,0.5689089521925668,0.5704998721786488,0,0,0.7280155254744847,0.4973724838997414,0,0,0.3816360326342587,0.2771642817000349,0,0,0.2165178655608085,0.001120150566251462,0,623.3333333333334,792.5641025641025,807.8754578754579,847.7655677655678,920.6959706959707,0.383484,-0.002563,0.921692,0.343933,-2.175751,-0.104675,1,2,1,1,2,50.000000
2025-02-15 19:20:03.109,0,0.7491696135258725,0.7801784577337728,0,0,0.3929805853821214,0.4907003143374437,0,0,0.6132305979861329,0.4824503315510929,0,0,0.2838359401190064,0.2548574033465763,0,0,0.1957403136497297,-0.01929324706713243,0,763.956043956044,806.6666666666667,794.981684981685,1007.728937728938,1059.70695970696,0.392761,0.002747,0.914978,0.635529,-1.899109,-0.358887,1,2,1,1,2,50.000000
2025-02-15 19:20:03.600,1.612242218949967,0.5529186305183996,0.479459942261845,0,1.941747735351116,0.3952389700437389,0.1894826476147906,0,1.580327953688436,0.6086565709281103,0.3936731037347881,0,1.585712628092577,0.25036172570086,0.2471046420890368,0,0.9316206180182838,0.1341396876942088,0.03247040048665398,0,460.5494505494506,803.040293040293,802.2344322344322,157.948717948718,937.2161172161173,0.390503,-0.003357,0.915710,0.508423,-2.429962,0.007477,1,1,1,1,2,50.000000
2025-02-15 19:20:03.977,,,,,,,,,,,,,,,,,,,,,,,,,,,,,,,,,,,,,,/muse/elements/blink
2025-02-15 19:20:04.103,1.612242218949967,0.2531737906504346,-0.1270766985430244,0,1.941747735351116,0.2208434001298551,-0.0691605436206682,0,1.580327953688436,0.4835397201803324,0.05476111599612676,0,1.585712628092577,0.2889532455656977,0.2262057938094657,0,0.9316206180182838,0.04413658057658406,0.009360036774626268,0,444.0293040293041,806.2637362637363,784.5054945054945,289.3040293040293,736.5567765567765,0.420654,-0.000793,0.913879,3.416901,-5.046844,0.672913,1,1,1,1,2,50.000000
2025-02-15 19:20:04.275,,,,,,,,,,,,,,,,,,,,,,,,,,,,,,,,,,,,,,/muse/elements/blink
2025-02-15 19:20:04.275,,,,,,,,,,,,,,,,,,,,,,,,,,,,,,,,,,,,,,/muse/elements/jaw_clench
2025-02-15 19:20:04.616,1.612242218949967,0.6299548423103385,0.1316455387206888,0,1.941747735351116,0.6153773763273422,0.1082795773661771,0,1.580327953688436,0.7207222239488228,0.2228983713355963,0,1.585712628092577,0.400312091621872,0.2310836693832803,0,0.9316206180182838,0.05570632313526249,-0.04242304531862847,0,745.4212454212454,787.7289377289378,801.8315018315019,0,981.1355311355312,0.463257,0.058167,0.894958,3.648682,-6.549683,1.861725,1,1,1,1,2,50.000000
2025-02-15 19:20:04.683,,,,,,,,,,,,,,,,,,,,,,,,,,,,,,,,,,,,,,/muse/elements/blink
2025-02-15 19:20:04.769,,,,,,,,,,,,,,,,,,,,,,,,,,,,,,,,,,,,,,/muse/elements/jaw_clench
2025-02-15 19:20:05.070,,,,,,,,,,,,,,,,,,,,,,,,,,,,,,,,,,,,,,/muse/elements/blink
2025-02-15 19:20:05.070,,,,,,,,,,,,,,,,,,,,,,,,,,,,,,,,,,,,,,/muse/elements/jaw_clench
2025-02-15 19:20:05.110,1.612242218949967,0.8975433938310072,0.3242397381772988,0,1.941747735351116,0.7405472785817595,0.1872623265105905,0,1.580327953688436,0.7170772191486043,0.3762865427668239,0,1.585712628092577,0.4821505690563248,0.3521327577775396,0,0.9316206180182838,0.09371624913666103,-0.08133368398633434,0,575.3846153846154,806.2637362637363,788.9377289377289,0,895.3113553113553,0.467468,0.016724,0.886414,-12.561035,3.080444,-4.762726,1,1,1,1,2,50.000000
2025-02-15 19:20:05.565,,,,,,,,,,,,,,,,,,,,,,,,,,,,,,,,,,,,,,/muse/elements/jaw_clench
2025-02-15 19:20:05.612,1.612242218949967,0.9354604192491678,0.4441231732499564,0,1.941747735351116,0.7653247496633321,0.3835409575231624,0,1.580327953688436,0.7433726530942588,0.461248970839901,0,1.585712628092577,0.4926076384651138,0.4045961605875872,0,0.9316206180182838,0.1995566686747964,-0.008739811103164416,0,509.3040293040293,795.7875457875458,810.2930402930403,1068.571428571429,229.6703296703297,0.413513,-0.093079,0.891663,-1.450500,-0.381317,-1.981354,1,1,1,1,4,50.000000
2025-02-15 19:20:06.002,,,,,,,,,,,,,,,,,,,,,,,,,,,,,,,,,,,,,,/muse/elements/blink
2025-02-15 19:20:06.113,1.612242218949967,0.8783153551037796,0.4036512176090567,0,1.941747735351116,0.6613008290359508,0.3837810918249537,0,1.580327953688436,0.834219722777233,0.666375531329531,0,1.585712628092577,0.6130872596923559,0.6973831331235745,0,0.9316206180182838,0.4118663122688949,0.01666500576935282,0,581.4285714285714,806.2637362637363,805.0549450549451,960.1831501831502,1146.739926739927,0.422668,-0.061340,0.903076,2.018738,-3.274841,-1.398163,1,2,1,1,4,50.000000
2025-02-15 19:20:06.180,,,,,,,,,,,,,,,,,,,,,,,,,,,,,,,,,,,,,,/muse/elements/blink
2025-02-15 19:20:06.613,1.612242218949967,0.8203979718788462,0.2750281402923673,0,1.941747735351116,0.6768335505071453,0.3822870989012302,0,1.580327953688436,0.7742805955349653,0.6432742621692679,0,1.585712628092577,0.6456947073786123,0.7131164812688261,0,0.9316206180182838,0.3981284554864914,-0.05008504586365605,0,545.1648351648352,792.5641025641025,804.6520146520147,242.5641025641026,908.2051282051282,0.421509,-0.058289,0.903564,0.530853,-2.841187,-0.104675,1,2,1,1,2,50.000000
2025-02-15 19:20:07.101,1.612242218949967,0.7408760696555694,0.1825695252705219,0,1.941747735351116,0.6889150410046463,0.287262399856518,0,1.580327953688436,0.781447993894029,0.6017594906534363,0,1.585712628092577,0.6097146159237908,0.6493616559318391,0,0.9316206180182838,0.312930338548232,-0.223181465623168,0,651.941391941392,806.2637362637363,803.040293040293,747.4358974358975,969.4505494505495,0.437744,-0.053040,0.879517,0.478516,-0.605621,-1.674805,1,2,1,1,4,50.000000
2025-02-15 19:20:07.116,,,,,,,,,,,,,,,,,,,,,,,,,,,,,,,,,,,,,,/muse/elements/blink
2025-02-15 19:20:07.607,1.612242218949967,0.8175406689441902,0.3346831863507112,0,1.941747735351116,0.5606987937714532,0.1460461361627946,0,1.580327953688436,0.6529346728138464,0.5401761992282712,0,1.585712628092577,0.3642495177166911,0.381036605922672,0,0.9316206180182838,-0.1841033165412805,-0.3715079752257077,0,753.4798534798535,813.5164835164835,805.0549450549451,1620.989010989011,999.2673992673992,0.403992,-0.074158,0.917297,-0.134583,-0.695343,1.375732,1,2,1,1,2,50.000000
2025-02-15 19:20:07.630,,,,,,,,,,,,,,,,,,,,,,,,,,,,,,,,,,,,,,/muse/elements/blink
2025-02-15 19:20:08.101,1.612242218949967,0.6437676596764499,0.3965876820179408,0,1.941747735351116,0.2757164994338244,0.03292698176614454,0,1.580327953688436,0.5467115880119616,0.4169745939251552,0,1.585712628092577,0.2187979183974645,0.04246844304399577,0,0.9316206180182838,-0.2811566816785133,-0.3557122578721313,0,616.080586080586,801.8315018315019,809.0842490842491,1620.989010989011,624.1391941391942,0.409973,-0.063538,0.905029,1.001892,-1.644897,0.194397,1,2,1,1,2,50.000000
2025-02-15 19:20:08.531,,,,,,,,,,,,,,,,,,,,,,,,,,,,,,,,,,,,,,/muse/elements/blink
2025-02-15 19:20:08.531,,,,,,,,,,,,,,,,,,,,,,,,,,,,,,,,,,,,,,/muse/elements/jaw_clench
2025-02-15 19:20:08.601,1.612242218949967,0.7059341245765861,0.2911863515828341,0,1.941747735351116,0.05247697860592035,0.01692372121260545,0,1.580327953688436,0.464604017355468,0.4813128259469071,0,1.585712628092577,0.4551550402145177,0.3181120213038516,0,0.9316206180182838,-0.1029736283545086,-0.09760775516062492,0,540.7326007326008,797.8021978021978,794.5787545787546,1285.347985347985,797.3992673992674,0.405640,-0.073547,0.901489,1.286011,-2.056122,-0.687866,1,2,1,1,2,50.000000
2025-02-15 19:20:08.852,,,,,,,,,,,,,,,,,,,,,,,,,,,,,,,,,,,,,,/muse/elements/blink
2025-02-15 19:20:09.111,1.612242218949967,0.6687379702325165,-0.01317564576590621,0,1.941747735351116,-0.02218075628428116,-0.001173338734198256,0,1.580327953688436,0.4637428874004927,0.4500565779710434,0,1.585712628092577,0.5839164309706262,0.4480738810262043,0,0.9316206180182838,0.05367959292617281,0.2123630963160916,0,612.0512820512821,808.6813186813187,800.2197802197802,864.6886446886447,760.7326007326008,0.399475,-0.060608,0.905884,2.729034,-2.945862,-0.149536,1,2,1,1,2,50.000000
2025-02-15 19:20:09.240,,,,,,,,,,,,,,,,,,,,,,,,,,,,,,,,,,,,,,/muse/elements/blink
2025-02-15 19:20:09.456,,,,,,,,,,,,,,,,,,,,,,,,,,,,,,,,,,,,,,/muse/elements/blink
2025-02-15 19:20:09.606,1.612242218949967,0.6535687213768173,-0.2613401011265225,0,1.941747735351116,0.03714368694845017,-0.111474367366761,0,1.580327953688436,0.5401698940896746,0.3949020165071864,0,1.585712628092577,0.7021520728289403,0.5151865801464344,0,0.9316206180182838,0.1081844444088503,0.2753704989571871,0,603.5897435897436,797.3992673992674,805.0549450549451,525.018315018315,747.4358974358975,0.395081,-0.048645,0.903137,2.190704,-2.684174,-0.209351,1,2,1,1,2,50.000000
2025-02-15 19:20:09.673,,,,,,,,,,,,,,,,,,,,,,,,,,,,,,,,,,,,,,/muse/elements/jaw_clench
2025-02-15 19:20:10.102,1.612242218949967,0.6489751100367526,0.1012367172070021,0,1.941747735351116,0.4987027474976525,-0.3115382480700773,0,1.580327953688436,0.5488673090330864,0.08502322604074794,0,1.585712628092577,0.6480104320472736,0.4356720538647165,0,0.9316206180182838,0.07055216063718615,0.2407207073509514,0,597.948717948718,796.996336996337,805.8608058608058,404.5421245421246,358.2051282051282,0.402283,-0.042786,0.911560,3.244934,-4.157104,0.814972,1,2,1,1,2,50.000000
2025-02-15 19:20:10.360,,,,,,,,,,,,,,,,,,,,,,,,,,,,,,,,,,,,,,/muse/elements/blink
2025-02-15 19:20:10.616,1.612242218949967,0.4991347171386463,0.256284668617969,0,1.941747735351116,0.5166463944514949,-0.1280995472243626,0,1.580327953688436,0.4854460803661209,0.1780495606948628,0,1.585712628092577,0.5715571103778982,0.3092637331409547,0,0.9316206180182838,-0.07585157485542195,0.06915483757078178,0,652.3443223443223,803.8461538461539,795.7875457875458,878.7912087912089,749.4505494505495,0.416321,-0.005981,0.909546,1.390686,-2.863617,0.448608,1,2,1,1,4,50.000000
2025-02-15 19:20:10.959,,,,,,,,,,,,,,,,,,,,,,,,,,,,,,,,,,,,,,/muse/elements/jaw_clench
2025-02-15 19:20:11.101,1.612242218949967,0.5164332965824739,0.2878723706770248,0,1.941747735351116,0.5229204411799584,-0.0110669544332956,0,1.580327953688436,0.2886486126738811,0.2258733481710568,0,1.585712628092577,0.3724518662237288,0.2259177228935784,0,0.9316206180182838,-0.1132491947903741,0.06447534509288162,0,471.8315018315018,791.7582417582418,797.8021978021978,1620.989010989011,772.8205128205128,0.420105,-0.011902,0.907837,-0.919647,-0.994415,-0.500946,1,2,1,1,4,50.000000
2025-02-15 19:20:11.607,1.612242218949967,0.5298002989289829,0.2449727539915963,0,1.941747735351116,0.08451649732437741,0.08950708631492998,0,1.580327953688436,0.6011645665646254,0.2427638574104543,0,1.585712628092577,0.2451951591226748,0.1018967278863381,0,0.9316206180182838,-0.1568996096936228,0.01583152113256339,0,532.6739926739926,795.7875457875458,790.5494505494506,0,501.6483516483516,0.414917,-0.025146,0.907471,2.616882,-3.588867,0.246735,1,2,1,1,4,50.000000
2025-02-15 19:20:12.120,1.612242218949967,0.7678559719629964,0.1991258813840135,0,1.941747735351116,0.2472095348800931,0.07925373249500704,0,1.580327953688436,0.8823849799826581,0.1597530915769794,0,1.585712628092577,0.4009777281259745,0.1208776044854112,0,0.9316206180182838,0.04561355270208341,-0.01077238017291456,0,550.8058608058608,804.2490842490843,805.4578754578755,873.5531135531136,862.6739926739926,0.414978,-0.015259,0.900024,-0.000000,-1.233673,-0.590668,1,2,1,1,4,50.000000
2025-02-15 19:20:12.184,,,,,,,,,,,,,,,,,,,,,,,,,,,,,,,,,,,,,,/muse/elements/blink
2025-02-15 19:20:12.601,1.612242218949967,0.8637855892110518,0.2266200812987026,0,1.941747735351116,0.3909514371278772,0.08521553764104563,0,1.580327953688436,0.9229634196665255,0.06741568197666208,0,1.585712628092577,0.5021313933201464,0.1574635473710457,0,0.9316206180182838,0.07197673190781122,-0.06512547800932783,0,502.8571428571429,805.4578754578755,801.4285714285714,418.2417582417582,715.6043956043957,0.413086,-0.012329,0.897522,1.839294,-2.168274,1.233673,1,2,1,1,2,50.000000
2025-02-15 19:20:12.982,,,,,,,,,,,,,,,,,,,,,,,,,,,,,,,,,,,,,,/muse/elements/jaw_clench
2025-02-15 19:20:13.101,1.612242218949967,0.8719723312659204,0.2240360037285404,0,1.941747735351116,0.6036337842292276,0.06536520858126234,0,1.580327953688436,0.9253370043972555,0.1073500112445832,0,1.585712628092577,0.6256571450319606,0.2185854295830023,0,0.9316206180182838,0.08523535889034559,-0.02548053212481205,0,535.8974358974359,796.5934065934066,805.8608058608058,0,489.96336996337,0.424255,0.001038,0.903625,3.872986,-4.441223,-0.052338,1,2,1,1,4,50.000000
2025-02-15 19:20:13.414,,,,,,,,,,,,,,,,,,,,,,,,,,,,,,,,,,,,,,/muse/elements/blink
2025-02-15 19:20:13.414,,,,,,,,,,,,,,,,,,,,,,,,,,,,,,,,,,,,,,/muse/elements/jaw_clench
2025-02-15 19:20:13.609,1.612242218949967,0.7886819151445686,0.1342561024836403,0,1.941747735351116,0.7156216812464894,0.003154994878150308,0,1.580327953688436,0.8681908402148771,0.3582646607622359,0,1.585712628092577,0.6543640988894089,0.2931262621351962,0,0.9316206180182838,-0.02758076247085234,-0.01105226531904727,0,565.7142857142858,805.4578754578755,794.5787545787546,864.2857142857143,758.3150183150184,0.445312,0.019714,0.896973,2.856140,-4.747772,1.981354,1,2,1,1,4,50.000000
2025-02-15 19:20:13.996,,,,,,,,,,,,,,,,,,,,,,,,,,,,,,,,,,,,,,/muse/elements/jaw_clench
2025-02-15 19:20:14.101,1.612242218949967,0.7338355178996718,0.1392830595039377,0,1.941747735351116,0.663531459379108,0.08690479244735787,0,1.580327953688436,0.7594733261219596,0.3582646607622359,0,1.585712628092577,0.6333819893155508,0.3689722493837982,0,0.9316206180182838,-0.007468911099082118,0.0309521798891173,0,458.5347985347985,813.919413919414,790.5494505494506,0,578.6080586080586,0.444641,0.018127,0.891907,-0.762634,-2.527161,-1.330872,1,2,1,1,2,50.000000
2025-02-15 19:20:14.426,,,,,,,,,,,,,,,,,,,,,,,,,,,,,,,,,,,,,,/muse/elements/blink
2025-02-15 19:20:14.614,1.612242218949967,0.7938037704311082,0.06533688229163626,0,1.941747735351116,0.6189729022323146,0.2173825246726249,0,1.580327953688436,0.7528101985261985,0.7180524881414727,0,1.585712628092577,0.6142175250749926,0.5254295159746278,0,0.9316206180182838,0.04886496111659133,0.113197647275616,0,419.047619047619,815.1282051282052,790.1465201465202,623.7362637362637,797.3992673992674,0.496765,0.050842,0.868713,2.340240,-6.078644,0.276642,1,2,1,1,2,50.000000
2025-02-15 19:20:15.111,1.612242218949967,0.7000540621670618,0.098055484423165,0,1.941747735351116,0.1618917254615196,0.1945234855255533,0,1.580327953688436,0.0823587283364156,0.7239058128199269,0,1.585712628092577,0.4304733494150003,0.5371652280696827,0,0.9316206180182838,0.0532637934318116,0.2139955996488021,0,17.72893772893773,797.8021978021978,788.1318681318681,285.6776556776557,689.8168498168499,0.499756,0.042786,0.859985,0.478516,-2.482300,-1.592560,1,2,1,1,2,50.000000
2025-02-15 19:20:15.223,,,,,,,,,,,,,,,,,,,,,,,,,,,,,,,,,,,,,,/muse/elements/jaw_clench
2025-02-15 19:20:15.330,,,,,,,,,,,,,,,,,,,,,,,,,,,,,,,,,,,,,,/muse/elements/blink
2025-02-15 19:20:15.601,1.612242218949967,0.886592942203252,0.03356909184074493,0,1.941747735351116,0.3928890613290495,0.09984909556306795,0,1.580327953688436,0.2091220637612208,0.7239058128199269,0,1.585712628092577,0.474837653586188,0.4320265005779879,0,0.9316206180182838,0.112698091367307,0.2591059975152212,0,491.1721611721612,798.6080586080586,795.7875457875458,0,747.4358974358975,0.500305,0.019531,0.860657,-0.351410,-0.680389,-1.315918,1,2,1,1,2,50.000000
2025-02-15 19:20:15.675,,,,,,,,,,,,,,,,,,,,,,,,,,,,,,,,,,,,,,/muse/elements/blink
2025-02-15 19:20:15.827,,,,,,,,,,,,,,,,,,,,,,,,,,,,,,,,,,,,,,/muse/elements/jaw_clench
2025-02-15 19:20:16.101,1.612242218949967,0.8512522965028732,0.02474564319704257,0,1.941747735351116,0.2636319063662154,-0.03470935978519304,0,1.580327953688436,0.3033982216158569,0.5549204684684024,0,1.585712628092577,0.4009462634636904,0.1149349363165549,0,0.9316206180182838,0.07369268924100431,0.2137348182370238,0,837.2893772893773,798.2051282051282,802.6373626373627,0,917.4725274725275,0.471008,0.027954,0.876831,1.263580,1.547699,-1.450500,1,2,1,1,2,50.000000
2025-02-15 19:20:16.278,,,,,,,,,,,,,,,,,,,,,,,,,,,,,,,,,,,,,,/muse/elements/blink
2025-02-15 19:20:16.601,1.612242218949967,0.7834280239346696,0.03129106833400376,0,1.941747735351116,0.4545987825774663,0.03155920312735704,0,1.580327953688436,0.4786428272926925,0.3913182819305678,0,1.585712628092577,0.2986439874150766,-0.0378736264756943,0,0.9316206180182838,-0.01967563571913939,0.05071483430436383,0,525.8241758241759,796.5934065934066,794.1758241758242,1620.989010989011,455.7142857142857,0.421753,0.010376,0.902405,-2.871094,1.614990,-2.579498,1,2,1,1,2,50.000000
2025-02-15 19:20:16.968,,,,,,,,,,,,,,,,,,,,,,,,,,,,,,,,,,,,,,/muse/elements/blink
2025-02-15 19:20:17.101,1.612242218949967,0.6721461279035866,0.06668750357966263,0,1.941747735351116,0.5184307278924053,0.1055132751077327,0,1.580327953688436,0.5419652032269147,0.3681363437009897,0,1.585712628092577,0.183087953508028,0.06048876506183183,0,0.9316206180182838,-0.1288037083435642,-0.09777078739620963,0,686.1904761904763,815.934065934066,801.025641025641,1093.956043956044,564.1025641025641,0.386902,-0.021606,0.908569,-2.706604,-0.852356,-1.151428,1,2,1,1,4,50.000000
2025-02-15 19:20:17.160,,,,,,,,,,,,,,,,,,,,,,,,,,,,,,,,,,,,,,/muse/elements/blink
2025-02-15 19:20:17.482,,,,,,,,,,,,,,,,,,,,,,,,,,,,,,,,,,,,,,/muse/elements/blink
2025-02-15 19:20:17.601,1.612242218949967,0.6603616392595454,0.1621931977893155,0,1.941747735351116,0.6057530740365887,0.07624386619263104,0,1.580327953688436,0.5980216408696692,0.08475243525276427,0,1.585712628092577,0.202335993553044,0.1113538401845007,0,0.9316206180182838,-0.1890666957066166,-0.1742556302854521,0,494.7985347985348,803.040293040293,817.5457875457876,0,427.9120879120879,0.380432,-0.023560,0.922424,-0.097198,-1.256104,0.157013,1,2,1,1,4,50.000000
2025-02-15 19:20:17.760,,,,,,,,,,,,,,,,,,,,,,,,,,,,,,,,,,,,,,/muse/elements/blink
2025-02-15 19:20:17.995,,,,,,,,,,,,,,,,,,,,,,,,,,,,,,,,,,,,,,/muse/elements/blink
2025-02-15 19:20:17.995,,,,,,,,,,,,,,,,,,,,,,,,,,,,,,,,,,,,,,/muse/elements/jaw_clench
2025-02-15 19:20:18.101,1.612242218949967,0.6669375728040267,0.3233405669515305,0,1.941747735351116,0.631336647527506,0.07240449201451121,0,1.580327953688436,0.6178363063680213,0.02064254453885104,0,1.585712628092577,0.2746633982498928,0.1545957702692441,0,0.9316206180182838,-0.1713307694150187,-0.125147254329582,0,418.6446886446886,802.2344322344322,796.1904761904763,0,753.0769230769231,0.382446,0.001221,0.918335,5.637512,-3.596344,2.915955,1,2,1,1,4,50.000000
2025-02-15 19:20:18.168,,,,,,,,,,,,,,,,,,,,,,,,,,,,,,,,,,,,,,/muse/elements/jaw_clench
2025-02-15 19:20:18.383,,,,,,,,,,,,,,,,,,,,,,,,,,,,,,,,,,,,,,/muse/elements/jaw_clench
2025-02-15 19:20:18.612,1.612242218949967,0.6506211773852338,0.4001581842922458,0,1.941747735351116,0.4468796597856121,-0.0101752622726235,0,1.580327953688436,0.474252970012418,0.2577816321226085,0,1.585712628092577,0.2687252803206861,0.1544848427629859,0,0.9316206180182838,-0.1033768535859959,-0.1485705932656609,0,624.1391941391942,797.8021978021978,807.4725274725275,1043.589743589744,1071.794871794872,0.376282,0.012695,0.925476,0.568237,-1.839294,1.734619,1,2,1,1,2,50.000000
2025-02-15 19:20:19.069,,,,,,,,,,,,,,,,,,,,,,,,,,,,,,,,,,,,,,/muse/elements/blink
2025-02-15 19:20:19.101,1.612242218949967,0.4651515072186957,0.3596525400510547,0,1.941747735351116,0.2706171556441537,-0.05553608628722823,0,1.580327953688436,0.4571061740827329,0.2607682818610396,0,1.585712628092577,0.145053111095302,0.1644633778612199,0,0.9316206180182838,-0.1171945192673714,-0.1494809762129763,0,44.72527472527473,809.0842490842491,790.952380952381,0,674.9084249084249,0.381592,0.017090,0.927673,0.874786,-2.512207,1.592560,1,2,1,1,2,50.000000
2025-02-15 19:20:19.602,1.612242218949967,0.2869406569127313,0.2500875788670256,0,1.941747735351116,-0.09191026774359244,-0.06132539264783269,0,1.580327953688436,0.4880811251280398,0.2525682890324749,0,1.585712628092577,0.0282531777008262,0.08853426278125132,0,0.9316206180182838,-0.06543229074887449,-0.07826791952263057,0,488.7545787545787,805.8608058608058,789.7435897435897,738.974358974359,941.2454212454213,0.385498,-0.008118,0.919067,1.345825,-1.203766,0.007477,1,2,1,1,2,50.000000
2025-02-15 19:20:20.102,,,,,,,,,,,,,,,,,,,,,,,,,,,,,,,,,,,,,,/muse/elements/jaw_clench
2025-02-15 19:20:20.103,1.612242218949967,0.1235571607760909,0.1487562110853759,0,1.941747735351116,-0.08330435382423143,0.03922297657352143,0,1.580327953688436,0.3940077023355511,0.3670127203558909,0,1.585712628092577,0.2696473827912262,0.1956748292444331,0,0.9316206180182838,-0.05935840265930017,-0.06878347613326979,0,315.0915750915751,804.2490842490843,808.2783882783883,1304.688644688645,737.7655677655678,0.383362,0.002380,0.919495,1.084137,-3.529053,0.059814,1,2,1,1,4,50.000000
2025-02-15 19:20:20.611,1.612242218949967,0.2452175610433537,0.2177761294275302,0,1.941747735351116,0.1381492779391413,0.08039891623481457,0,1.580327953688436,0.5180368175148322,0.3746230871867821,0,1.585712628092577,0.47881990045275,0.3432514599014914,0,0.9316206180182838,-0.07775108004581799,0.01018239858650662,0,444.4322344322345,802.2344322344322,804.6520146520147,0,1041.978021978022,0.398071,0.019592,0.913452,0.635529,-3.319702,2.257996,1,2,1,1,4,50.000000
2025-02-15 19:20:20.702,,,,,,,,,,,,,,,,,,,,,,,,,,,,,,,,,,,,,,/muse/elements/blink
2025-02-15 19:20:20.897,,,,,,,,,,,,,,,,,,,,,,,,,,,,,,,,,,,,,,/muse/elements/blink
2025-02-15 19:20:21.105,1.612242218949967,0.2528940663718486,0.2073824576199145,0,1.941747735351116,0.1741078674848393,0.08598351785363037,0,1.580327953688436,0.3914635238858844,0.4314227287308772,0,1.585712628092577,0.5430327445794595,0.3835511666264045,0,0.9316206180182838,-0.1446581126490679,0.002828198283347455,0,348.5347985347985,803.8461538461539,804.2490842490843,0,763.1501831501831,0.385315,0.012329,0.914001,0.112152,0.396271,-1.577606,1,2,1,1,4,50.000000
2025-02-15 19:20:21.327,,,,,,,,,,,,,,,,,,,,,,,,,,,,,,,,,,,,,,/muse/elements/blink
2025-02-15 19:20:21.601,1.612242218949967,0.3097525244747604,0.1339526157231025,0,1.941747735351116,0.1656105080367606,0.1531277198831443,0,1.580327953688436,0.3822772342402074,0.5070605059277773,0,1.585712628092577,0.5270305484807863,0.3932372712294595,0,0.9316206180182838,-0.2916176279717204,-0.02932781168397702,0,368.6813186813187,799.4139194139194,784.5054945054945,0,577.8021978021978,0.368347,0.028076,0.924500,4.800110,-0.538330,2.452393,1,2,1,1,4,50.000000
2025-02-15 19:20:21.754,,,,,,,,,,,,,,,,,,,,,,,,,,,,,,,,,,,,,,/muse/elements/blink
